TITLE	ACE2_Cal_0.8uM
DATA TYPE	
ORIGIN	JASCO
OWNER	
DATE	24/04/09
TIME	16:53:08
SPECTROMETER/DATA SYSTEM	
LOCALE	1033
RESOLUTION	
DELTAX	-0.1
XUNITS	NANOMETERS
YUNITS	CD [mdeg]
Y2UNITS	HT [V]
FIRSTX	  350.0000
LASTX	  190.0000
NPOINTS	    1601
FIRSTY	    -0.94172
MAXY	     7.05313
MINY	    -2.74217
XYDATA
350.0000	-0.941722	480.857
349.9000	-0.875784	480.272
349.8000	-0.91455	479.377
349.7000	-0.858064	478.468
349.6000	-0.664039	477.825
349.5000	-0.433809	477.269
349.4000	-0.361135	476.421
349.3000	-0.429713	475.813
349.2000	-0.575553	475.29
349.1000	-0.825291	474.442
349.0000	-0.99153	473.825
348.9000	-1.16835	473.287
348.8000	-1.21563	472.469
348.7000	-1.37214	471.637
348.6000	-1.54782	471.031
348.5000	-1.37919	470.506
348.4000	-1.27047	469.642
348.3000	-1.28784	469.009
348.2000	-1.20953	468.457
348.1000	-1.01055	467.625
348.0000	-1.02726	466.993
347.9000	-1.15057	466.427
347.8000	-1.21916	465.579
347.7000	-1.2923	464.722
347.6000	-1.19055	464.118
347.5000	-1.12277	463.613
347.4000	-0.994347	462.841
347.3000	-0.885128	462.263
347.2000	-0.776173	461.774
347.1000	-0.686677	461.013
347.0000	-0.624542	460.457
346.9000	-0.521857	459.981
346.8000	-0.388991	459.245
346.7000	-0.467824	458.491
346.6000	-0.286738	457.936
346.5000	-0.14709	457.179
346.4000	-0.296722	456.392
346.3000	-0.338903	455.798
346.2000	-0.172428	455.047
346.1000	-0.127542	454.273
346.0000	-0.421817	453.684
345.9000	-0.663493	453.165
345.8000	-0.805324	452.371
345.7000	-1.21896	451.782
345.6000	-1.41955	451.292
345.5000	-1.44892	450.595
345.4000	-1.46237	450.084
345.3000	-1.62823	449.649
345.2000	-1.55027	448.966
345.1000	-1.35088	448.286
345.0000	-1.13848	447.799
344.9000	-0.906112	447.169
344.8000	-0.482036	446.527
344.7000	-0.323474	446.022
344.6000	-0.222213	445.363
344.5000	-0.218455	444.686
344.4000	-0.282677	444.185
344.3000	-0.201003	443.512
344.2000	-0.271809	442.816
344.1000	-0.357066	442.286
344.0000	-0.643826	441.619
343.9000	-0.785741	440.952
343.8000	-0.841745	440.464
343.7000	-0.844288	440.042
343.6000	-0.749108	439.396
343.5000	-0.758985	438.936
343.4000	-0.743725	438.558
343.3000	-0.582168	437.953
343.2000	-0.429339	437.504
343.1000	-0.248267	437.112
343.0000	-0.0264678	436.53
342.9000	0.072544	435.931
342.8000	0.259591	435.491
342.7000	0.395956	434.891
342.6000	0.486345	434.275
342.5000	0.339617	433.81
342.4000	0.201902	433.231
342.3000	0.105169	432.649
342.2000	-0.0368597	432.202
342.1000	-0.167904	431.625
342.0000	-0.240979	431.045
341.9000	-0.224546	430.638
341.8000	-0.295067	430.083
341.7000	-0.235409	429.524
341.6000	0.0156369	429.117
341.5000	0.146969	428.597
341.4000	0.0863218	428.063
341.3000	-0.0420265	427.662
341.2000	-0.107282	427.106
341.1000	-0.393225	426.525
341.0000	-0.523849	426.099
340.9000	-0.611007	425.565
340.8000	-0.786157	425.017
340.7000	-1.00349	424.587
340.6000	-1.16102	424.041
340.5000	-1.0449	423.499
340.4000	-0.847021	423.114
340.3000	-0.701653	422.605
340.2000	-0.640637	422.092
340.1000	-0.730621	421.708
340.0000	-0.634921	421.23
339.9000	-0.685846	420.745
339.8000	-0.674235	420.386
339.7000	-0.5908	419.927
339.6000	-0.64573	419.455
339.5000	-0.717634	419.126
339.4000	-0.730625	418.676
339.3000	-0.719432	418.206
339.2000	-0.631001	417.699
339.1000	-0.650759	417.238
339.0000	-0.565078	416.765
338.9000	-0.629804	416.222
338.8000	-0.777466	415.724
338.7000	-0.673591	415.231
338.6000	-0.542201	414.694
338.5000	-0.463254	414.222
338.4000	-0.386969	413.869
338.3000	-0.397294	413.423
338.2000	-0.411896	412.972
338.1000	-0.373259	412.658
338.0000	-0.313981	412.247
337.9000	-0.391614	411.827
337.8000	-0.569084	411.531
337.7000	-0.586216	411.146
337.6000	-0.615764	410.751
337.5000	-0.600891	410.452
337.4000	-0.538884	410.068
337.3000	-0.351514	409.675
337.2000	-0.236669	409.22
337.1000	-0.0758027	408.813
337.0000	-0.000926264	408.392
336.9000	-0.095045	407.943
336.8000	-0.19317	407.547
336.7000	-0.181901	407.147
336.6000	-0.25413	406.699
336.5000	-0.396132	406.289
336.4000	-0.493048	406.005
336.3000	-0.616172	405.615
336.2000	-0.763043	405.211
336.1000	-0.751471	404.91
336.0000	-0.603836	404.53
335.9000	-0.643919	404.132
335.8000	-0.723956	403.7
335.7000	-0.737121	403.313
335.6000	-0.787264	402.919
335.5000	-0.824777	402.515
335.4000	-0.761286	402.174
335.3000	-0.897007	401.822
335.2000	-1.0529	401.447
335.1000	-1.10429	401.115
335.0000	-1.01711	400.902
334.9000	-0.887303	400.589
334.8000	-0.866437	400.256
334.7000	-0.83889	399.892
334.6000	-0.766292	399.575
334.5000	-0.552484	399.258
334.4000	-0.31835	398.878
334.3000	-0.129491	398.526
334.2000	0.0535111	398.163
334.1000	0.0131206	397.767
334.0000	0.0499203	397.428
333.9000	0.184462	397.184
333.8000	0.204739	396.85
333.7000	0.220515	396.507
333.6000	0.0578255	396.128
333.5000	-0.106703	395.805
333.4000	-0.280136	395.48
333.3000	-0.298519	395.14
333.2000	-0.375015	394.842
333.1000	-0.609786	394.533
333.0000	-0.713328	394.204
332.9000	-0.785332	393.906
332.8000	-0.745101	393.574
332.7000	-0.630671	393.283
332.6000	-0.616368	392.981
332.5000	-0.621525	392.653
332.4000	-0.734602	392.36
332.3000	-0.662375	392.065
332.2000	-0.607227	391.725
332.1000	-0.619613	391.416
332.0000	-0.605822	391.092
331.9000	-0.672723	390.819
331.8000	-0.836977	390.539
331.7000	-0.860491	390.224
331.6000	-0.754958	389.939
331.5000	-0.605686	389.537
331.4000	-0.638377	389.219
331.3000	-0.57143	388.946
331.2000	-0.607012	388.638
331.1000	-0.644074	388.362
331.0000	-0.629617	388.076
330.9000	-0.582068	387.787
330.8000	-0.581404	387.531
330.7000	-0.675401	387.239
330.6000	-0.733033	386.981
330.5000	-0.773441	386.721
330.4000	-0.878831	386.439
330.3000	-0.873337	386.2
330.2000	-0.850559	385.852
330.1000	-0.859541	385.568
330.0000	-0.92647	385.311
329.9000	-0.921093	385.029
329.8000	-0.767687	384.788
329.7000	-0.66669	384.456
329.6000	-0.562519	384.199
329.5000	-0.499073	383.967
329.4000	-0.506785	383.683
329.3000	-0.512778	383.431
329.2000	-0.493827	383.08
329.1000	-0.440966	382.811
329.0000	-0.438159	382.58
328.9000	-0.558175	382.319
328.8000	-0.68325	382.079
328.7000	-0.794444	381.742
328.6000	-0.765948	381.502
328.5000	-0.677086	381.307
328.4000	-0.731307	381.06
328.3000	-0.66737	380.843
328.2000	-0.722646	380.546
328.1000	-0.798205	380.31
328.0000	-0.726005	380.107
327.9000	-0.716133	379.855
327.8000	-0.756692	379.625
327.7000	-0.848004	379.361
327.6000	-0.770533	379.19
327.5000	-0.765642	379.057
327.4000	-0.841083	378.797
327.3000	-0.788319	378.556
327.2000	-0.83951	378.263
327.1000	-0.900482	378.053
327.0000	-0.911335	377.885
326.9000	-0.857103	377.625
326.8000	-0.883841	377.353
326.7000	-0.949891	377.035
326.6000	-0.961904	376.842
326.5000	-0.978948	376.712
326.4000	-1.04676	376.466
326.3000	-1.05223	376.227
326.2000	-0.927331	375.972
326.1000	-0.850177	375.799
326.0000	-0.833476	375.507
325.9000	-0.855054	375.238
325.8000	-0.88683	374.979
325.7000	-0.779369	374.74
325.6000	-0.783168	374.605
325.5000	-0.732535	374.325
325.4000	-0.737781	374.049
325.3000	-0.809959	373.77
325.2000	-0.856151	373.599
325.1000	-0.725875	373.49
325.0000	-0.607804	373.233
324.9000	-0.607774	372.958
324.8000	-0.595893	372.663
324.7000	-0.496891	372.517
324.6000	-0.458865	372.444
324.5000	-0.403137	372.196
324.4000	-0.274937	371.949
324.3000	-0.343502	371.708
324.2000	-0.415081	371.571
324.1000	-0.400064	371.316
324.0000	-0.414537	371.06
323.9000	-0.384664	370.798
323.8000	-0.363476	370.55
323.7000	-0.384615	370.421
323.6000	-0.526347	370.158
323.5000	-0.595701	369.879
323.4000	-0.606668	369.606
323.3000	-0.699816	369.461
323.2000	-0.72666	369.376
323.1000	-0.776467	369.132
323.0000	-0.893334	368.869
322.9000	-0.880918	368.6
322.8000	-0.741791	368.464
322.7000	-0.645687	368.228
322.6000	-0.684254	367.965
322.5000	-0.700272	367.699
322.4000	-0.741455	367.432
322.3000	-0.74359	367.268
322.2000	-0.727806	366.978
322.1000	-0.742795	366.671
322.0000	-0.824309	366.375
321.9000	-0.922813	366.199
321.8000	-0.89044	365.927
321.7000	-0.826266	365.644
321.6000	-0.708155	365.354
321.5000	-0.642276	365.084
321.4000	-0.623017	364.95
321.3000	-0.553528	364.761
321.2000	-0.547825	364.564
321.1000	-0.511309	364.365
321.0000	-0.498026	364.295
320.9000	-0.519098	364.15
320.8000	-0.466247	364.009
320.7000	-0.495984	363.869
320.6000	-0.449799	363.726
320.5000	-0.441011	363.679
320.4000	-0.457787	363.516
320.3000	-0.52182	363.349
320.2000	-0.525231	363.195
320.1000	-0.427825	363.146
320.0000	-0.567671	362.996
319.9000	-0.710318	362.829
319.8000	-0.76114	362.65
319.7000	-0.77109	362.466
319.6000	-0.778703	362.268
319.5000	-0.682222	362.122
319.4000	-0.56018	361.958
319.3000	-0.598169	361.75
319.2000	-0.52366	361.641
319.1000	-0.481413	361.442
319.0000	-0.486413	361.237
318.9000	-0.552233	361.025
318.8000	-0.590099	360.9
318.7000	-0.708655	360.676
318.6000	-0.799752	360.446
318.5000	-0.902127	360.245
318.4000	-0.930364	360.054
318.3000	-0.900587	359.849
318.2000	-0.85949	359.698
318.1000	-0.863158	359.547
318.0000	-0.855369	359.374
317.9000	-0.755556	359.307
317.8000	-0.652374	359.192
317.7000	-0.568357	359.061
317.6000	-0.526525	358.891
317.5000	-0.484215	358.798
317.4000	-0.441529	358.645
317.3000	-0.444194	358.482
317.2000	-0.468796	358.306
317.1000	-0.463181	358.128
317.0000	-0.534337	357.895
316.9000	-0.638698	357.693
316.8000	-0.703047	357.506
316.7000	-0.823664	357.321
316.6000	-0.954424	357.135
316.5000	-0.95363	356.983
316.4000	-0.895625	356.815
316.3000	-0.864919	356.646
316.2000	-0.863461	356.486
316.1000	-0.878249	356.37
316.0000	-0.863563	356.261
315.9000	-0.786719	356.111
315.8000	-0.736056	356.014
315.7000	-0.722738	355.857
315.6000	-0.747165	355.731
315.5000	-0.820142	355.578
315.4000	-0.843683	355.479
315.3000	-0.819344	355.298
315.2000	-0.822921	355.103
315.1000	-0.838624	354.927
315.0000	-0.747026	354.764
314.9000	-0.721457	354.592
314.8000	-0.676221	354.44
314.7000	-0.606344	354.279
314.6000	-0.526496	354.126
314.5000	-0.495498	353.98
314.4000	-0.429847	353.877
314.3000	-0.431954	353.742
314.2000	-0.503111	353.605
314.1000	-0.621385	353.432
314.0000	-0.641217	353.286
313.9000	-0.678741	353.134
313.8000	-0.755542	352.987
313.7000	-0.734857	352.79
313.6000	-0.787899	352.607
313.5000	-0.810591	352.432
313.4000	-0.878386	352.263
313.3000	-0.927677	352.098
313.2000	-0.904108	351.962
313.1000	-0.956501	351.809
313.0000	-0.984104	351.664
312.9000	-1.03199	351.529
312.8000	-1.0522	351.432
312.7000	-1.0488	351.307
312.6000	-1.04428	351.189
312.5000	-0.992356	351.043
312.4000	-1.01082	350.906
312.3000	-1.01519	350.747
312.2000	-0.995663	350.59
312.1000	-0.974346	350.386
312.0000	-1.02378	350.189
311.9000	-1.06029	350.002
311.8000	-1.09234	349.781
311.7000	-1.08228	349.602
311.6000	-1.04541	349.415
311.5000	-1.00097	349.267
311.4000	-1.07814	349.081
311.3000	-1.12437	348.962
311.2000	-1.13507	348.842
311.1000	-1.13141	348.743
311.0000	-1.09378	348.639
310.9000	-0.998455	348.554
310.8000	-1.0027	348.45
310.7000	-1.04555	348.359
310.6000	-0.981355	348.244
310.5000	-0.893306	348.147
310.4000	-0.808126	348.052
310.3000	-0.783239	347.97
310.2000	-0.775474	347.888
310.1000	-0.79632	347.82
310.0000	-0.813795	347.746
309.9000	-0.772752	347.686
309.8000	-0.764529	347.627
309.7000	-0.711155	347.543
309.6000	-0.67911	347.474
309.5000	-0.666947	347.367
309.4000	-0.614624	347.283
309.3000	-0.619189	347.152
309.2000	-0.566761	347.049
309.1000	-0.515131	346.895
309.0000	-0.485777	346.766
308.9000	-0.48502	346.65
308.8000	-0.617119	346.544
308.7000	-0.720646	346.446
308.6000	-0.702667	346.367
308.5000	-0.654438	346.28
308.4000	-0.700704	346.178
308.3000	-0.768563	346.115
308.2000	-0.859461	346.014
308.1000	-0.971576	345.94
308.0000	-1.00217	345.847
307.9000	-0.969804	345.771
307.8000	-0.930554	345.644
307.7000	-0.93624	345.546
307.6000	-0.927647	345.432
307.5000	-0.910753	345.279
307.4000	-0.860428	345.167
307.3000	-0.773466	345.054
307.2000	-0.666049	344.965
307.1000	-0.59448	344.837
307.0000	-0.619639	344.751
306.9000	-0.74104	344.658
306.8000	-0.824258	344.6
306.7000	-0.875173	344.54
306.6000	-0.9328	344.455
306.5000	-0.965864	344.383
306.4000	-0.948182	344.269
306.3000	-0.946777	344.189
306.2000	-0.957857	344.078
306.1000	-0.949603	343.98
306.0000	-0.934529	343.847
305.9000	-0.907501	343.752
305.8000	-0.890733	343.686
305.7000	-0.852487	343.582
305.6000	-0.849782	343.513
305.5000	-0.883077	343.441
305.4000	-0.957598	343.396
305.3000	-0.960943	343.307
305.2000	-0.895264	343.248
305.1000	-0.838109	343.18
305.0000	-0.804758	343.068
304.9000	-0.771355	342.999
304.8000	-0.785972	342.91
304.7000	-0.793416	342.83
304.6000	-0.854456	342.71
304.5000	-0.818557	342.617
304.4000	-0.765609	342.547
304.3000	-0.708849	342.444
304.2000	-0.654804	342.387
304.1000	-0.615116	342.329
304.0000	-0.640517	342.292
303.9000	-0.666831	342.212
303.8000	-0.591876	342.143
303.7000	-0.617479	342.098
303.6000	-0.618588	342.003
303.5000	-0.694505	341.94
303.4000	-0.759365	341.862
303.3000	-0.839593	341.759
303.2000	-0.863667	341.66
303.1000	-0.838668	341.585
303.0000	-0.932762	341.541
302.9000	-0.989555	341.456
302.8000	-0.956196	341.39
302.7000	-0.993884	341.338
302.6000	-1.04774	341.253
302.5000	-1.03249	341.215
302.4000	-1.01148	341.169
302.3000	-1.0361	341.086
302.2000	-1.00326	341.006
302.1000	-0.90865	340.933
302.0000	-0.883372	340.886
301.9000	-0.924014	340.806
301.8000	-0.920947	340.744
301.7000	-0.900799	340.694
301.6000	-0.90653	340.613
301.5000	-0.846584	340.57
301.4000	-0.799677	340.525
301.3000	-0.755152	340.456
301.2000	-0.753192	340.394
301.1000	-0.738613	340.341
301.0000	-0.688431	340.318
300.9000	-0.668823	340.255
300.8000	-0.693255	340.187
300.7000	-0.767828	340.133
300.6000	-0.839484	340.061
300.5000	-0.891686	340.002
300.4000	-0.902611	339.962
300.3000	-0.946592	339.895
300.2000	-0.970047	339.833
300.1000	-1.01222	339.781
300.0000	-1.10523	339.724
299.9000	-1.08317	339.68
299.8000	-1.03062	339.638
299.7000	-0.945176	339.585
299.6000	-0.905177	339.534
299.5000	-0.859129	339.482
299.4000	-0.772475	339.444
299.3000	-0.774048	339.385
299.2000	-0.65855	339.346
299.1000	-0.657266	339.315
299.0000	-0.671053	339.261
298.9000	-0.765822	339.218
298.8000	-0.87019	339.186
298.7000	-0.937586	339.136
298.6000	-0.990599	339.093
298.5000	-1.03935	339.049
298.4000	-1.04013	338.993
298.3000	-1.03105	338.947
298.2000	-1.04004	338.896
298.1000	-1.04615	338.842
298.0000	-0.999535	338.797
297.9000	-0.984675	338.758
297.8000	-1.02863	338.697
297.7000	-1.0407	338.651
297.6000	-1.06862	338.62
297.5000	-1.09704	338.563
297.4000	-1.02445	338.528
297.3000	-0.994044	338.499
297.2000	-1.01266	338.443
297.1000	-1.00802	338.401
297.0000	-0.967336	338.363
296.9000	-1.01617	338.302
296.8000	-0.988197	338.256
296.7000	-0.998371	338.22
296.6000	-1.04047	338.196
296.5000	-1.02248	338.159
296.4000	-0.979025	338.133
296.3000	-0.929967	338.115
296.2000	-0.942025	338.082
296.1000	-0.91265	338.06
296.0000	-0.900517	338.045
295.9000	-0.882922	338.012
295.8000	-0.892404	337.956
295.7000	-0.947067	337.922
295.6000	-1.08215	337.881
295.5000	-1.18973	337.824
295.4000	-1.20982	337.762
295.3000	-1.19472	337.727
295.2000	-1.20361	337.678
295.1000	-1.27438	337.617
295.0000	-1.31041	337.587
294.9000	-1.31985	337.542
294.8000	-1.30201	337.486
294.7000	-1.24934	337.457
294.6000	-1.24467	337.434
294.5000	-1.24084	337.395
294.4000	-1.2024	337.369
294.3000	-1.18144	337.347
294.2000	-1.11507	337.311
294.1000	-1.0858	337.287
294.0000	-1.03619	337.272
293.9000	-1.05395	337.234
293.8000	-1.02716	337.211
293.7000	-1.0066	337.19
293.6000	-1.03403	337.146
293.5000	-1.05674	337.094
293.4000	-1.05435	337.071
293.3000	-1.0916	337.032
293.2000	-1.10722	336.984
293.1000	-1.12416	336.967
293.0000	-1.14812	336.929
292.9000	-1.1808	336.886
292.8000	-1.27428	336.87
292.7000	-1.30716	336.855
292.6000	-1.2994	336.827
292.5000	-1.24342	336.785
292.4000	-1.18853	336.768
292.3000	-1.16231	336.729
292.2000	-1.14635	336.687
292.1000	-1.12125	336.67
292.0000	-1.05222	336.638
291.9000	-0.994243	336.594
291.8000	-0.989328	336.555
291.7000	-0.985588	336.542
291.6000	-0.959826	336.507
291.5000	-0.914212	336.469
291.4000	-0.828991	336.455
291.3000	-0.782425	336.414
291.2000	-0.722133	336.36
291.1000	-0.730869	336.301
291.0000	-0.729344	336.26
290.9000	-0.667449	336.199
290.8000	-0.658754	336.117
290.7000	-0.676179	336.029
290.6000	-0.675461	335.933
290.5000	-0.637457	335.816
290.4000	-0.616744	335.693
290.3000	-0.571749	335.59
290.2000	-0.471159	335.465
290.1000	-0.490483	335.324
290.0000	-0.49838	335.196
289.9000	-0.522301	335.107
289.8000	-0.583689	335.023
289.7000	-0.709034	334.96
289.6000	-0.856313	334.932
289.5000	-0.926212	334.945
289.4000	-1.05367	334.983
289.3000	-1.10951	335.056
289.2000	-1.11012	335.154
289.1000	-1.11997	335.273
289.0000	-1.12192	335.387
288.9000	-1.1021	335.502
288.8000	-1.04334	335.609
288.7000	-0.996317	335.708
288.6000	-0.944627	335.781
288.5000	-0.923649	335.835
288.4000	-0.951144	335.871
288.3000	-1.00581	335.895
288.2000	-1.0046	335.9
288.1000	-1.00769	335.899
288.0000	-1.01799	335.887
287.9000	-1.05058	335.857
287.8000	-1.10351	335.841
287.7000	-1.11783	335.825
287.6000	-1.08321	335.812
287.5000	-1.08625	335.787
287.4000	-1.08684	335.779
287.3000	-1.06391	335.775
287.2000	-1.03887	335.77
287.1000	-0.975786	335.768
287.0000	-0.937934	335.743
286.9000	-0.884058	335.734
286.8000	-0.903609	335.728
286.7000	-0.85137	335.722
286.6000	-0.81357	335.703
286.5000	-0.777586	335.701
286.4000	-0.705506	335.702
286.3000	-0.7044	335.708
286.2000	-0.667746	335.713
286.1000	-0.661187	335.71
286.0000	-0.634137	335.72
285.9000	-0.676952	335.717
285.8000	-0.696747	335.721
285.7000	-0.712973	335.704
285.6000	-0.819853	335.684
285.5000	-0.859827	335.687
285.4000	-0.885689	335.689
285.3000	-0.897786	335.699
285.2000	-0.938048	335.681
285.1000	-0.938534	335.674
285.0000	-0.978403	335.686
284.9000	-1.0373	335.688
284.8000	-1.0482	335.697
284.7000	-1.05027	335.682
284.6000	-1.07259	335.672
284.5000	-1.12006	335.684
284.4000	-1.12473	335.697
284.3000	-1.13109	335.72
284.2000	-1.06862	335.716
284.1000	-1.03752	335.72
284.0000	-0.974179	335.712
283.9000	-0.953814	335.726
283.8000	-0.941848	335.743
283.7000	-0.964613	335.737
283.6000	-0.953216	335.735
283.5000	-0.985724	335.724
283.4000	-1.05327	335.721
283.3000	-1.10442	335.737
283.2000	-1.08197	335.758
283.1000	-1.09443	335.776
283.0000	-1.13347	335.778
282.9000	-1.11648	335.786
282.8000	-1.07657	335.792
282.7000	-1.01247	335.816
282.6000	-0.970426	335.84
282.5000	-0.921577	335.85
282.4000	-0.973888	335.855
282.3000	-1.0108	335.857
282.2000	-1.02219	335.861
282.1000	-1.03322	335.885
282.0000	-1.05152	335.91
281.9000	-1.02975	335.924
281.8000	-1.02797	335.929
281.7000	-0.969435	335.934
281.6000	-0.912354	335.941
281.5000	-0.933609	335.944
281.4000	-0.944746	335.97
281.3000	-0.922158	335.981
281.2000	-0.897686	335.983
281.1000	-0.987348	335.98
281.0000	-1.05335	335.98
280.9000	-1.08163	335.985
280.8000	-1.01567	335.988
280.7000	-0.938259	335.996
280.6000	-0.861311	336.007
280.5000	-0.859135	336.007
280.4000	-0.830163	336.007
280.3000	-0.751505	336.006
280.2000	-0.76882	336.003
280.1000	-0.818258	336.001
280.0000	-0.952408	335.996
279.9000	-1.06084	335.993
279.8000	-1.06476	335.978
279.7000	-1.05558	335.979
279.6000	-1.05098	335.978
279.5000	-1.13874	335.982
279.4000	-1.12234	335.99
279.3000	-1.07654	335.999
279.2000	-1.02554	336.011
279.1000	-0.982356	336.022
279.0000	-1.03356	336.032
278.9000	-1.10111	336.032
278.8000	-1.11587	336.05
278.7000	-1.11899	336.069
