TITLE	ACE2_seo_0.8uM
DATA TYPE	
ORIGIN	JASCO
OWNER	
DATE	24/04/08
TIME	17:36:45
SPECTROMETER/DATA SYSTEM	
LOCALE	1033
RESOLUTION	
DELTAX	-0.1
XUNITS	NANOMETERS
YUNITS	Mol. Ellip.
Y2UNITS	HT [V]
FIRSTX	  350.0000
LASTX	  190.0000
NPOINTS	    1601
FIRSTY	-1990654.12500
MAXY	21611544.00000
MINY	-8926407.00000
XYDATA
350.0000	-1.99065E+006	482.867
349.9000	-2.53942E+006	482.237
349.8000	-2.45488E+006	481.314
349.7000	-3.31136E+006	480.374
349.6000	-2.64743E+006	479.715
349.5000	-2.32433E+006	479.142
349.4000	-2.22391E+006	478.261
349.3000	-2.46933E+006	477.627
349.2000	-2.40342E+006	477.092
349.1000	-1.78257E+006	476.245
349.0000	-1.82435E+006	475.618
348.9000	-1.3468E+006	475.078
348.8000	-1.20125E+006	474.243
348.7000	-1.09936E+006	473.396
348.6000	-627016	472.793
348.5000	-147844	472.27
348.4000	595832	471.412
348.3000	86939	470.766
348.2000	-164940	470.202
348.1000	-228065	469.34
348.0000	41398.5	468.685
347.9000	968418	468.115
347.8000	1.58859E+006	467.26
347.7000	913356	466.383
347.6000	699575	465.758
347.5000	379639	465.241
347.4000	616400	464.441
347.3000	599815	463.844
347.2000	1.07004E+006	463.342
347.1000	1.19844E+006	462.594
347.0000	842666	462.046
346.9000	939539	461.579
346.8000	1.13061E+006	460.843
346.7000	1.36211E+006	460.096
346.6000	843328	459.537
346.5000	220736	458.775
346.4000	-551271	457.994
346.3000	-1.34429E+006	457.383
346.2000	-2.22558E+006	456.586
346.1000	-2.77454E+006	455.779
346.0000	-3.64597E+006	455.169
345.9000	-3.977E+006	454.638
345.8000	-3.74866E+006	453.829
345.7000	-3.19676E+006	453.242
345.6000	-2.94447E+006	452.748
345.5000	-2.4401E+006	452.046
345.4000	-1.86926E+006	451.539
345.3000	-764354	451.121
345.2000	-12626.5	450.438
345.1000	121045	449.741
345.0000	-566903	449.233
344.9000	-915180	448.584
344.8000	-1.24629E+006	447.918
344.7000	-1.78387E+006	447.396
344.6000	-2.50929E+006	446.701
344.5000	-3.35389E+006	445.989
344.4000	-3.48895E+006	445.459
344.3000	-3.32022E+006	444.782
344.2000	-3.28183E+006	444.095
344.1000	-2.86644E+006	443.58
344.0000	-2.58834E+006	442.912
343.9000	-1.94407E+006	442.245
343.8000	-1.15371E+006	441.767
343.7000	-515933	441.362
343.6000	-324470	440.736
343.5000	72538	440.286
343.4000	1.31108E+006	439.916
343.3000	1.72904E+006	439.281
343.2000	1.41728E+006	438.81
343.1000	1.67609E+006	438.409
343.0000	1.63457E+006	437.826
342.9000	1.2581E+006	437.224
342.8000	1.23439E+006	436.772
342.7000	438985	436.144
342.6000	-339718	435.502
342.5000	-1.42794E+006	435.033
342.4000	-1.71725E+006	434.462
342.3000	-1.49007E+006	433.89
342.2000	-1.64318E+006	433.437
342.1000	-1.91302E+006	432.843
342.0000	-2.35701E+006	432.249
341.9000	-2.80388E+006	431.837
341.8000	-2.8137E+006	431.295
341.7000	-2.62801E+006	430.745
341.6000	-1.70785E+006	430.348
341.5000	-1.64842E+006	429.826
341.4000	-2.15197E+006	429.289
341.3000	-2.6812E+006	428.887
341.2000	-2.42717E+006	428.336
341.1000	-2.07954E+006	427.767
341.0000	-1.54383E+006	427.345
340.9000	-1.12838E+006	426.795
340.8000	-1.23844E+006	426.23
340.7000	-783014	425.788
340.6000	-281161	425.245
340.5000	303681	424.695
340.4000	1.02528E+006	424.3
340.3000	1.25188E+006	423.773
340.2000	1.46624E+006	423.239
340.1000	1.20105E+006	422.851
340.0000	805521	422.358
339.9000	-28466.7	421.863
339.8000	-1.22203E+006	421.482
339.7000	-2.06834E+006	421.007
339.6000	-3.46538E+006	420.523
339.5000	-4.24645E+006	420.187
339.4000	-5.08269E+006	419.727
339.3000	-5.78483E+006	419.238
339.2000	-5.79859E+006	418.725
339.1000	-5.57043E+006	418.266
339.0000	-5.11098E+006	417.792
338.9000	-4.22053E+006	417.248
338.8000	-3.31958E+006	416.746
338.7000	-2.70703E+006	416.235
338.6000	-2.24138E+006	415.688
338.5000	-2.02473E+006	415.209
338.4000	-1.57856E+006	414.854
338.3000	-1.59499E+006	414.402
338.2000	-1.146E+006	413.952
338.1000	-1.07956E+006	413.638
338.0000	-741867	413.228
337.9000	-717742	412.805
337.8000	-335861	412.511
337.7000	115857	412.122
337.6000	-68574.2	411.712
337.5000	-118901	411.397
337.4000	-455728	410.99
337.3000	-899543	410.566
337.2000	-1.13863E+006	410.09
337.1000	-965316	409.672
337.0000	-613516	409.252
336.9000	-395510	408.793
336.8000	-466992	408.39
336.7000	-703559	407.982
336.6000	-745416	407.537
336.5000	-270355	407.139
336.4000	245581	406.862
336.3000	364559	406.467
336.2000	52018.5	406.054
336.1000	-570521	405.744
336.0000	-867603	405.368
335.9000	-467132	404.98
335.8000	-400539	404.54
335.7000	-760943	404.138
335.6000	-1.33248E+006	403.73
335.5000	-1.34285E+006	403.314
335.4000	-1.37418E+006	402.957
335.3000	-1.26638E+006	402.602
335.2000	-685979	402.222
335.1000	-110922	401.885
335.0000	200185	401.666
334.9000	562305	401.354
334.8000	493750	401.02
334.7000	396231	400.659
334.6000	206239	400.339
334.5000	242284	400.013
334.4000	54711	399.621
334.3000	-380375	399.256
334.2000	-829808	398.878
334.1000	-1.48118E+006	398.457
334.0000	-1.65865E+006	398.091
333.9000	-2.08824E+006	397.819
333.8000	-2.09212E+006	397.484
333.7000	-2.4063E+006	397.138
333.6000	-2.93766E+006	396.76
333.5000	-3.05729E+006	396.438
333.4000	-2.84145E+006	396.114
333.3000	-2.65271E+006	395.778
333.2000	-2.4753E+006	395.489
333.1000	-2.20086E+006	395.195
333.0000	-2.26296E+006	394.866
332.9000	-1.8353E+006	394.572
332.8000	-1.13079E+006	394.241
332.7000	-782159	393.944
332.6000	-723997	393.638
332.5000	-585307	393.298
332.4000	-174442	393.003
332.3000	488766	392.707
332.2000	1.17036E+006	392.368
332.1000	1.24904E+006	392.053
332.0000	1.06112E+006	391.716
331.9000	626162	391.432
331.8000	561281	391.15
331.7000	339543	390.827
331.6000	-324492	390.528
331.5000	-818081	390.111
331.4000	-1.1749E+006	389.779
331.3000	-1.219E+006	389.489
331.2000	-1.07597E+006	389.171
331.1000	-1.05291E+006	388.883
331.0000	-1.15616E+006	388.587
330.9000	-1.54317E+006	388.28
330.8000	-1.43508E+006	388.015
330.7000	-1.23872E+006	387.722
330.6000	-1.45359E+006	387.463
330.5000	-1.63095E+006	387.204
330.4000	-2.12358E+006	386.912
330.3000	-2.40919E+006	386.658
330.2000	-2.20106E+006	386.3
330.1000	-1.77337E+006	386.011
330.0000	-1.04773E+006	385.755
329.9000	-817967	385.471
329.8000	-921285	385.216
329.7000	-955445	384.875
329.6000	-789327	384.616
329.5000	-469683	384.391
329.4000	-617700	384.101
329.3000	-913547	383.841
329.2000	-1.6127E+006	383.477
329.1000	-2.23239E+006	383.19
329.0000	-2.70664E+006	382.94
328.9000	-2.87853E+006	382.661
328.8000	-3.08373E+006	382.406
328.7000	-3.23919E+006	382.063
328.6000	-3.0921E+006	381.821
328.5000	-2.69235E+006	381.626
328.4000	-2.54071E+006	381.371
328.3000	-2.32021E+006	381.143
328.2000	-2.29497E+006	380.843
328.1000	-2.02659E+006	380.608
328.0000	-1.91301E+006	380.401
327.9000	-2.01794E+006	380.13
327.8000	-2.214E+006	379.882
327.7000	-2.18309E+006	379.616
327.6000	-2.09468E+006	379.443
327.5000	-1.79693E+006	379.313
327.4000	-1.58443E+006	379.054
327.3000	-1.24282E+006	378.812
327.2000	-1.41505E+006	378.521
327.1000	-1.33721E+006	378.317
327.0000	-1.06613E+006	378.158
326.9000	-1.09918E+006	377.887
326.8000	-993921	377.605
326.7000	-1.18441E+006	377.287
326.6000	-1.33722E+006	377.096
326.5000	-1.29682E+006	376.968
326.4000	-1.17009E+006	376.714
326.3000	-1.02876E+006	376.466
326.2000	-1.02796E+006	376.195
326.1000	-922836	376.014
326.0000	-928965	375.717
325.9000	-816339	375.438
325.8000	-644091	375.171
325.7000	-825606	374.918
325.6000	-1.30973E+006	374.774
325.5000	-1.6289E+006	374.48
325.4000	-1.61041E+006	374.194
325.3000	-1.77058E+006	373.906
325.2000	-2.07215E+006	373.732
325.1000	-2.19824E+006	373.619
325.0000	-2.17128E+006	373.344
324.9000	-1.88892E+006	373.055
324.8000	-1.57107E+006	372.75
324.7000	-1.51505E+006	372.593
324.6000	-1.44368E+006	372.515
324.5000	-1.58921E+006	372.25
324.4000	-1.3139E+006	371.984
324.3000	-1.22143E+006	371.735
324.2000	-1.49138E+006	371.596
324.1000	-1.57995E+006	371.335
324.0000	-1.70873E+006	371.069
323.9000	-1.623E+006	370.796
323.8000	-1.35114E+006	370.546
323.7000	-1.39392E+006	370.421
323.6000	-1.77446E+006	370.156
323.5000	-2.04179E+006	369.864
323.4000	-1.98283E+006	369.583
323.3000	-2.00761E+006	369.435
323.2000	-2.1779E+006	369.35
323.1000	-1.97458E+006	369.102
323.0000	-2.10244E+006	368.83
322.9000	-2.03939E+006	368.558
322.8000	-1.87506E+006	368.426
322.7000	-1.61502E+006	368.187
322.6000	-1.52323E+006	367.92
322.5000	-1.14191E+006	367.649
322.4000	-969639	367.372
322.3000	-1.13538E+006	367.199
322.2000	-892960	366.904
322.1000	-874452	366.581
322.0000	-1.01E+006	366.261
321.9000	-1.36421E+006	366.068
321.8000	-1.63507E+006	365.78
321.7000	-2.13203E+006	365.479
321.6000	-2.42384E+006	365.176
321.5000	-2.45232E+006	364.902
321.4000	-2.47373E+006	364.764
321.3000	-2.52124E+006	364.566
321.2000	-2.73019E+006	364.363
321.1000	-2.75755E+006	364.157
321.0000	-2.69424E+006	364.082
320.9000	-2.50588E+006	363.941
320.8000	-2.58668E+006	363.8
320.7000	-2.67894E+006	363.654
320.6000	-2.91914E+006	363.503
320.5000	-3.0286E+006	363.451
320.4000	-3.03208E+006	363.286
320.3000	-2.50184E+006	363.121
320.2000	-2.21405E+006	362.967
320.1000	-2.13775E+006	362.907
320.0000	-1.80642E+006	362.747
319.9000	-1.44493E+006	362.577
319.8000	-1.06648E+006	362.402
319.7000	-1.0823E+006	362.218
319.6000	-833039	362.011
319.5000	-743911	361.855
319.4000	-595897	361.68
319.3000	-719338	361.468
319.2000	-849014	361.356
319.1000	-1.04119E+006	361.154
319.0000	-1.25894E+006	360.943
318.9000	-1.57739E+006	360.724
318.8000	-1.90377E+006	360.601
318.7000	-2.14431E+006	360.374
318.6000	-2.31052E+006	360.14
318.5000	-2.35276E+006	359.944
318.4000	-2.40549E+006	359.751
318.3000	-2.3082E+006	359.535
318.2000	-2.06641E+006	359.372
318.1000	-1.77912E+006	359.209
318.0000	-1.49647E+006	359.032
317.9000	-1.28452E+006	358.962
317.8000	-1.32008E+006	358.839
317.7000	-1.27128E+006	358.692
317.6000	-1.0848E+006	358.508
317.5000	-982747	358.406
317.4000	-1.33774E+006	358.235
317.3000	-1.31594E+006	358.062
317.2000	-1.44461E+006	357.875
317.1000	-1.55491E+006	357.686
317.0000	-1.65439E+006	357.451
316.9000	-1.36077E+006	357.257
316.8000	-1.2894E+006	357.077
316.7000	-1.05736E+006	356.9
316.6000	-730364	356.725
316.5000	-567392	356.579
316.4000	-505297	356.415
316.3000	-275246	356.246
316.2000	-36055.6	356.086
316.1000	-354666	355.966
316.0000	-622820	355.848
315.9000	-1.00614E+006	355.687
315.8000	-1.44969E+006	355.579
315.7000	-1.80145E+006	355.404
315.6000	-2.12061E+006	355.253
315.5000	-2.22309E+006	355.081
315.4000	-2.61899E+006	354.966
315.3000	-2.47571E+006	354.77
315.2000	-2.2133E+006	354.565
315.1000	-1.9927E+006	354.379
315.0000	-1.95014E+006	354.2
314.9000	-1.76758E+006	354.027
314.8000	-1.37684E+006	353.885
314.7000	-1.38586E+006	353.729
314.6000	-1.37049E+006	353.576
314.5000	-1.57116E+006	353.43
314.4000	-1.92049E+006	353.32
314.3000	-1.8775E+006	353.185
314.2000	-1.71865E+006	353.056
314.1000	-1.58892E+006	352.877
314.0000	-1.91423E+006	352.714
313.9000	-1.8953E+006	352.549
313.8000	-1.50198E+006	352.395
313.7000	-1.1275E+006	352.179
313.6000	-1.09027E+006	351.977
313.5000	-1.36549E+006	351.786
313.4000	-1.65651E+006	351.603
313.3000	-1.844E+006	351.432
313.2000	-1.65195E+006	351.293
313.1000	-1.58407E+006	351.142
313.0000	-1.48849E+006	350.996
312.9000	-1.85213E+006	350.859
312.8000	-1.81106E+006	350.766
312.7000	-1.29625E+006	350.645
312.6000	-790510	350.523
312.5000	-620123	350.362
312.4000	-540358	350.216
312.3000	-823493	350.048
312.2000	-1.15646E+006	349.882
312.1000	-1.23118E+006	349.666
312.0000	-1.14905E+006	349.464
311.9000	-1.35246E+006	349.265
311.8000	-1.91629E+006	349.029
311.7000	-2.2148E+006	348.841
311.6000	-2.41752E+006	348.641
311.5000	-2.36638E+006	348.478
311.4000	-2.15379E+006	348.283
311.3000	-2.074E+006	348.152
311.2000	-2.29448E+006	348.018
311.1000	-2.45355E+006	347.906
311.0000	-2.2069E+006	347.789
310.9000	-1.99928E+006	347.69
310.8000	-1.9608E+006	347.585
310.7000	-1.86024E+006	347.494
310.6000	-1.7568E+006	347.367
310.5000	-2.01525E+006	347.258
310.4000	-2.11086E+006	347.155
310.3000	-1.95338E+006	347.065
310.2000	-1.88516E+006	346.981
310.1000	-2.01206E+006	346.911
310.0000	-1.85451E+006	346.83
309.9000	-1.88797E+006	346.76
309.8000	-2.20274E+006	346.699
309.7000	-2.18113E+006	346.613
309.6000	-2.01091E+006	346.541
309.5000	-1.9873E+006	346.43
309.4000	-1.98525E+006	346.339
309.3000	-1.88303E+006	346.205
309.2000	-1.92176E+006	346.094
309.1000	-1.93781E+006	345.927
309.0000	-1.95733E+006	345.782
308.9000	-1.79428E+006	345.651
308.8000	-1.55137E+006	345.536
308.7000	-1.41751E+006	345.43
308.6000	-1.41095E+006	345.338
308.5000	-1.90111E+006	345.229
308.4000	-1.82141E+006	345.118
308.3000	-1.61747E+006	345.055
308.2000	-1.70264E+006	344.949
308.1000	-1.8172E+006	344.867
308.0000	-2.00082E+006	344.762
307.9000	-1.95707E+006	344.672
307.8000	-1.98401E+006	344.53
307.7000	-1.66798E+006	344.424
307.6000	-1.47144E+006	344.304
307.5000	-1.68863E+006	344.139
307.4000	-1.68358E+006	344.02
307.3000	-1.52944E+006	343.908
307.2000	-1.37917E+006	343.821
307.1000	-1.37407E+006	343.691
307.0000	-1.22654E+006	343.602
306.9000	-1.18776E+006	343.513
306.8000	-1.17568E+006	343.456
306.7000	-1.29879E+006	343.391
306.6000	-1.3238E+006	343.305
306.5000	-1.38235E+006	343.228
306.4000	-1.57802E+006	343.103
306.3000	-1.80854E+006	343.015
306.2000	-1.92656E+006	342.898
306.1000	-1.85325E+006	342.795
306.0000	-1.76352E+006	342.652
305.9000	-1.85495E+006	342.548
305.8000	-1.66647E+006	342.471
305.7000	-1.74786E+006	342.356
305.6000	-1.61367E+006	342.276
305.5000	-1.12602E+006	342.198
305.4000	-1.07748E+006	342.145
305.3000	-1.1711E+006	342.051
305.2000	-1.57191E+006	341.982
305.1000	-1.62922E+006	341.899
305.0000	-1.86509E+006	341.774
304.9000	-2.0871E+006	341.693
304.8000	-2.11975E+006	341.593
304.7000	-2.24384E+006	341.501
304.6000	-2.31005E+006	341.375
304.5000	-2.2466E+006	341.273
304.4000	-2.09163E+006	341.188
304.3000	-2.10301E+006	341.077
304.2000	-2.01956E+006	341.015
304.1000	-1.58607E+006	340.957
304.0000	-1.34702E+006	340.92
303.9000	-1.38999E+006	340.833
303.8000	-1.56624E+006	340.749
303.7000	-1.82836E+006	340.693
303.6000	-2.00927E+006	340.592
303.5000	-1.78698E+006	340.526
303.4000	-1.83434E+006	340.437
303.3000	-2.15749E+006	340.32
303.2000	-2.50972E+006	340.208
303.1000	-2.33719E+006	340.121
303.0000	-2.28142E+006	340.071
302.9000	-2.36534E+006	339.982
302.8000	-2.22121E+006	339.907
302.7000	-2.50258E+006	339.846
302.6000	-2.29879E+006	339.762
302.5000	-1.8904E+006	339.717
302.4000	-1.59984E+006	339.66
302.3000	-1.7432E+006	339.564
302.2000	-2.1391E+006	339.472
302.1000	-2.26533E+006	339.385
302.0000	-2.3573E+006	339.331
301.9000	-2.28242E+006	339.249
301.8000	-2.3974E+006	339.175
301.7000	-2.61901E+006	339.114
301.6000	-2.90243E+006	339.026
301.5000	-3.30735E+006	338.98
301.4000	-3.39642E+006	338.927
301.3000	-3.23902E+006	338.85
301.2000	-3.21143E+006	338.778
301.1000	-3.30244E+006	338.714
301.0000	-3.25301E+006	338.681
300.9000	-3.31154E+006	338.609
300.8000	-3.18748E+006	338.538
300.7000	-3.23026E+006	338.478
300.6000	-2.9284E+006	338.404
300.5000	-2.78748E+006	338.344
300.4000	-2.54623E+006	338.3
300.3000	-2.43218E+006	338.227
300.2000	-2.22952E+006	338.158
300.1000	-1.99799E+006	338.102
300.0000	-1.92188E+006	338.038
299.9000	-1.7824E+006	337.986
299.8000	-1.59796E+006	337.935
299.7000	-1.79676E+006	337.871
299.6000	-1.83503E+006	337.818
299.5000	-1.96846E+006	337.756
299.4000	-2.1451E+006	337.707
299.3000	-2.41659E+006	337.64
299.2000	-2.42506E+006	337.589
299.1000	-2.60993E+006	337.549
299.0000	-2.49233E+006	337.488
298.9000	-2.45863E+006	337.439
298.8000	-2.57071E+006	337.398
298.7000	-2.84038E+006	337.339
298.6000	-2.90863E+006	337.295
298.5000	-2.77765E+006	337.244
298.4000	-2.74679E+006	337.182
298.3000	-2.54848E+006	337.129
298.2000	-2.60761E+006	337.067
298.1000	-2.46078E+006	337.007
298.0000	-1.97305E+006	336.958
297.9000	-1.76247E+006	336.91
297.8000	-1.61266E+006	336.841
297.7000	-1.6578E+006	336.786
297.6000	-1.78849E+006	336.744
297.5000	-1.83796E+006	336.681
297.4000	-1.86028E+006	336.637
297.3000	-1.87973E+006	336.598
297.2000	-2.1822E+006	336.532
297.1000	-2.40069E+006	336.482
297.0000	-2.39917E+006	336.437
296.9000	-2.34637E+006	336.373
296.8000	-2.15714E+006	336.324
296.7000	-2.19394E+006	336.281
296.6000	-2.30496E+006	336.248
296.5000	-2.34218E+006	336.205
296.4000	-2.44833E+006	336.167
296.3000	-2.38559E+006	336.141
296.2000	-2.14474E+006	336.103
296.1000	-2.01636E+006	336.07
296.0000	-1.98417E+006	336.044
295.9000	-1.83064E+006	336.001
295.8000	-1.82521E+006	335.936
295.7000	-1.72478E+006	335.893
295.6000	-1.81797E+006	335.848
295.5000	-2.01412E+006	335.783
295.4000	-2.23331E+006	335.711
295.3000	-2.34476E+006	335.668
295.2000	-2.51187E+006	335.61
295.1000	-2.81351E+006	335.542
295.0000	-2.94309E+006	335.506
294.9000	-3.19585E+006	335.456
294.8000	-3.20776E+006	335.388
294.7000	-2.99095E+006	335.352
294.6000	-2.82729E+006	335.319
294.5000	-2.89406E+006	335.268
294.4000	-2.86019E+006	335.231
294.3000	-2.59642E+006	335.207
294.2000	-2.36424E+006	335.16
294.1000	-2.26396E+006	335.126
294.0000	-2.07849E+006	335.105
293.9000	-2.0851E+006	335.06
293.8000	-2.32257E+006	335.028
293.7000	-2.29553E+006	335.005
293.6000	-2.3422E+006	334.955
293.5000	-2.58469E+006	334.892
293.4000	-2.59069E+006	334.862
293.3000	-2.53486E+006	334.816
293.2000	-2.58804E+006	334.761
293.1000	-2.65209E+006	334.737
293.0000	-2.66926E+006	334.691
292.9000	-2.56706E+006	334.64
292.8000	-2.68185E+006	334.616
292.7000	-2.5438E+006	334.593
292.6000	-2.61865E+006	334.554
292.5000	-2.63963E+006	334.501
292.4000	-2.70679E+006	334.471
292.3000	-2.58305E+006	334.425
292.2000	-2.33401E+006	334.378
292.1000	-2.44184E+006	334.353
292.0000	-2.53102E+006	334.31
291.9000	-2.76884E+006	334.253
291.8000	-2.69706E+006	334.207
291.7000	-2.59481E+006	334.19
291.6000	-2.3837E+006	334.15
291.5000	-2.33793E+006	334.107
291.4000	-2.58229E+006	334.086
291.3000	-2.80872E+006	334.033
291.2000	-2.85107E+006	333.968
291.1000	-2.87289E+006	333.904
291.0000	-3.08173E+006	333.857
290.9000	-3.17325E+006	333.787
290.8000	-3.31031E+006	333.695
290.7000	-3.22006E+006	333.597
290.6000	-2.97501E+006	333.488
290.5000	-2.57502E+006	333.36
290.4000	-2.28815E+006	333.228
290.3000	-2.17992E+006	333.112
290.2000	-2.03736E+006	332.971
290.1000	-1.9704E+006	332.819
290.0000	-2.01957E+006	332.681
289.9000	-2.36508E+006	332.584
289.8000	-2.7277E+006	332.494
289.7000	-3.1611E+006	332.429
289.6000	-3.35866E+006	332.401
289.5000	-3.2663E+006	332.409
289.4000	-3.08603E+006	332.449
289.3000	-3.0339E+006	332.518
289.2000	-2.988E+006	332.608
289.1000	-2.68481E+006	332.719
289.0000	-2.25184E+006	332.824
288.9000	-1.94481E+006	332.927
288.8000	-1.75256E+006	333.022
288.7000	-1.68223E+006	333.107
288.6000	-1.7841E+006	333.168
288.5000	-1.8392E+006	333.214
288.4000	-1.8434E+006	333.242
288.3000	-1.93486E+006	333.257
288.2000	-2.32436E+006	333.252
288.1000	-2.39254E+006	333.243
288.0000	-2.05844E+006	333.225
287.9000	-2.16981E+006	333.191
287.8000	-2.11529E+006	333.172
287.7000	-1.93168E+006	333.146
287.6000	-1.8656E+006	333.123
287.5000	-1.75126E+006	333.09
287.4000	-1.59763E+006	333.075
287.3000	-1.62775E+006	333.06
287.2000	-1.95823E+006	333.041
287.1000	-2.12964E+006	333.024
287.0000	-1.96455E+006	332.985
286.9000	-1.91529E+006	332.962
286.8000	-1.87728E+006	332.948
286.7000	-1.83191E+006	332.931
286.6000	-2.15961E+006	332.899
286.5000	-2.18606E+006	332.887
286.4000	-1.86005E+006	332.879
286.3000	-1.47153E+006	332.879
286.2000	-1.18766E+006	332.876
286.1000	-1.17791E+006	332.866
286.0000	-1.32461E+006	332.864
