TITLE	ACE2_Erg_0.6uM
DATA TYPE	
ORIGIN	JASCO
OWNER	
DATE	24/04/09
TIME	14:43:43
SPECTROMETER/DATA SYSTEM	
LOCALE	1033
RESOLUTION	
DELTAX	-0.1
XUNITS	NANOMETERS
YUNITS	CD [mdeg]
Y2UNITS	HT [V]
FIRSTX	  350.0000
LASTX	  190.0000
NPOINTS	    1601
FIRSTY	    -0.59139
MAXY	     8.20003
MINY	    -2.21419
XYDATA
350.0000	-0.59139	484.061
349.9000	-0.546921	483.448
349.8000	-0.587355	482.537
349.7000	-0.843586	481.603
349.6000	-0.991766	480.929
349.5000	-0.94898	480.354
349.4000	-0.963136	479.466
349.3000	-0.811973	478.844
349.2000	-0.446787	478.325
349.1000	-0.0201518	477.502
349.0000	0.182359	476.889
348.9000	0.657756	476.356
348.8000	1.05447	475.514
348.7000	0.990633	474.643
348.6000	0.742361	474.005
348.5000	0.520184	473.451
348.4000	0.597985	472.581
348.3000	0.608308	471.928
348.2000	0.642414	471.353
348.1000	0.717924	470.482
348.0000	0.541258	469.823
347.9000	0.709802	469.258
347.8000	0.979066	468.428
347.7000	1.13907	467.58
347.6000	0.837624	466.957
347.5000	0.537565	466.432
347.4000	0.340912	465.618
347.3000	0.07325	465.007
347.2000	0.0432641	464.498
347.1000	0.124148	463.725
347.0000	0.145585	463.139
346.9000	0.0240093	462.627
346.8000	-0.0116204	461.848
346.7000	0.19055	461.061
346.6000	0.213612	460.475
346.5000	0.331975	459.722
346.4000	0.325975	458.954
346.3000	0.0177273	458.36
346.2000	-0.136305	457.584
346.1000	-0.138814	456.794
346.0000	0.167272	456.216
345.9000	0.336843	455.715
345.8000	0.479103	454.938
345.7000	0.489212	454.356
345.6000	0.394712	453.85
345.5000	0.565935	453.117
345.4000	0.658	452.585
345.3000	0.60726	452.136
345.2000	0.65426	451.432
345.1000	0.544783	450.713
345.0000	0.316002	450.179
344.9000	0.230006	449.493
344.8000	0.176333	448.796
344.7000	0.1881	448.263
344.6000	0.14885	447.582
344.5000	-0.0430629	446.889
344.4000	-0.116842	446.374
344.3000	-0.114389	445.68
344.2000	0.0201001	444.977
344.1000	0.000223634	444.441
344.0000	0.153314	443.78
343.9000	0.282433	443.113
343.8000	0.376066	442.621
343.7000	0.564808	442.192
343.6000	0.647555	441.525
343.5000	0.643638	441.047
343.4000	0.697065	440.651
343.3000	0.741127	440.035
343.2000	0.58839	439.571
343.1000	0.312565	439.157
343.0000	0.101277	438.537
342.9000	0.0103119	437.909
342.8000	-0.0755589	437.441
342.7000	0.0660687	436.825
342.6000	0.0216439	436.198
342.5000	-0.0762742	435.723
342.4000	-0.115661	435.123
342.3000	0.0752061	434.522
342.2000	0.326836	434.071
342.1000	0.472698	433.489
342.0000	0.534913	432.905
341.9000	0.43513	432.487
341.8000	0.398884	431.921
341.7000	0.429999	431.35
341.6000	0.490691	430.928
341.5000	0.333622	430.384
341.4000	0.187079	429.834
341.3000	-0.0154464	429.421
341.2000	-0.140093	428.843
341.1000	-0.32889	428.244
341.0000	-0.336993	427.808
340.9000	-0.499091	427.241
340.8000	-0.652849	426.661
340.7000	-0.714676	426.213
340.6000	-0.710085	425.651
340.5000	-0.73921	425.082
340.4000	-0.770358	424.668
340.3000	-0.525722	424.145
340.2000	-0.366493	423.614
340.1000	-0.384173	423.223
340.0000	-0.375031	422.732
339.9000	-0.235748	422.241
339.8000	-0.0480952	421.877
339.7000	0.161776	421.414
339.6000	0.261583	420.947
339.5000	0.190121	420.615
339.4000	0.0399871	420.146
339.3000	0.135023	419.659
339.2000	0.262144	419.137
339.1000	0.419476	418.67
339.0000	0.428693	418.185
338.9000	0.358369	417.626
338.8000	0.348939	417.117
338.7000	0.480059	416.601
338.6000	0.477276	416.047
338.5000	0.411567	415.562
338.4000	0.434081	415.201
338.3000	0.36387	414.739
338.2000	0.331125	414.274
338.1000	0.314122	413.943
338.0000	0.264746	413.504
337.9000	0.0392617	413.057
337.8000	-0.119055	412.741
337.7000	-0.1446	412.347
337.6000	-0.226481	411.938
337.5000	-0.266757	411.627
337.4000	-0.300239	411.227
337.3000	-0.415154	410.807
337.2000	-0.500128	410.337
337.1000	-0.490588	409.921
337.0000	-0.519941	409.497
336.9000	-0.607524	409.036
336.8000	-0.616243	408.63
336.7000	-0.583152	408.225
336.6000	-0.546617	407.772
336.5000	-0.364415	407.365
336.4000	-0.19128	407.079
336.3000	-0.0938666	406.683
336.2000	0.096048	406.28
336.1000	0.406324	405.977
336.0000	0.522802	405.583
335.9000	0.445689	405.166
335.8000	0.428491	404.712
335.7000	0.331125	404.306
335.6000	0.185877	403.889
335.5000	0.135286	403.468
335.4000	0.104836	403.103
335.3000	0.0904647	402.739
335.2000	0.100673	402.348
335.1000	0.258127	402.009
335.0000	0.213661	401.774
334.9000	0.2685	401.445
334.8000	0.283611	401.105
334.7000	0.423354	400.739
334.6000	0.452283	400.412
334.5000	0.453791	400.073
334.4000	0.419913	399.678
334.3000	0.238034	399.309
334.2000	0.188284	398.935
334.1000	0.124533	398.526
334.0000	0.0737133	398.165
333.9000	-0.0741397	397.896
333.8000	-0.237544	397.538
333.7000	-0.392066	397.173
333.6000	-0.470295	396.781
333.5000	-0.449075	396.444
333.4000	-0.399979	396.105
333.3000	-0.46492	395.75
333.2000	-0.322467	395.45
333.1000	-0.185752	395.147
333.0000	-0.0111948	394.82
332.9000	0.0540921	394.525
332.8000	0.10391	394.178
332.7000	0.112132	393.87
332.6000	0.167481	393.558
332.5000	0.29409	393.227
332.4000	0.280418	392.929
332.3000	0.15759	392.62
332.2000	0.173218	392.261
332.1000	0.129742	391.932
332.0000	0.0849224	391.593
331.9000	0.067118	391.31
331.8000	-0.0902026	391.021
331.7000	-0.234162	390.685
331.6000	-0.36753	390.372
331.5000	-0.464991	389.942
331.4000	-0.589455	389.609
331.3000	-0.595623	389.325
331.2000	-0.599508	389.006
331.1000	-0.693687	388.717
331.0000	-0.710381	388.419
330.9000	-0.579536	388.119
330.8000	-0.516857	387.859
330.7000	-0.383068	387.557
330.6000	-0.403907	387.285
330.5000	-0.388666	387.011
330.4000	-0.374069	386.723
330.3000	-0.281037	386.475
330.2000	-0.232959	386.102
330.1000	-0.204819	385.793
330.0000	-0.0091115	385.515
329.9000	0.0795416	385.227
329.8000	0.110683	384.976
329.7000	0.19975	384.639
329.6000	0.343324	384.374
329.5000	0.380062	384.132
329.4000	0.342738	383.838
329.3000	0.265344	383.58
329.2000	0.076896	383.214
329.1000	-0.0912929	382.917
329.0000	-0.155814	382.658
328.9000	-0.243368	382.372
328.8000	-0.322341	382.114
328.7000	-0.435119	381.758
328.6000	-0.39481	381.497
328.5000	-0.262569	381.288
328.4000	-0.146147	381.039
328.3000	-0.0758533	380.819
328.2000	0.0288887	380.526
328.1000	0.0455479	380.29
328.0000	0.00399676	380.08
327.9000	-0.00135949	379.82
327.8000	0.0931174	379.593
327.7000	0.0455005	379.328
327.6000	-0.0438625	379.144
327.5000	-0.0217357	379.006
327.4000	-0.0593154	378.741
327.3000	-0.0257994	378.491
327.2000	0.0105629	378.189
327.1000	0.112511	377.975
327.0000	0.0922037	377.795
326.9000	0.061999	377.518
326.8000	0.0931906	377.243
326.7000	0.118352	376.921
326.6000	0.055345	376.72
326.5000	-0.0375265	376.582
326.4000	-0.030987	376.33
326.3000	0.00132966	376.085
326.2000	0.0121712	375.811
326.1000	-0.0255439	375.62
326.0000	-0.0868724	375.327
325.9000	-0.174583	375.062
325.8000	-0.163798	374.812
325.7000	-0.118385	374.555
325.6000	-0.143301	374.403
325.5000	-0.227402	374.103
325.4000	-0.301746	373.816
325.3000	-0.317182	373.532
325.2000	-0.193852	373.362
325.1000	-0.116429	373.239
325.0000	-0.0385916	372.954
324.9000	-0.0230749	372.66
324.8000	-0.0388691	372.362
324.7000	0.0305223	372.214
324.6000	0.0239362	372.138
324.5000	-0.041561	371.878
324.4000	-0.0612727	371.611
324.3000	-0.12595	371.351
324.2000	-0.194883	371.202
324.1000	-0.219539	370.942
324.0000	-0.227776	370.684
323.9000	-0.172499	370.419
323.8000	-0.137795	370.172
323.7000	-0.0621006	370.05
323.6000	0.000292204	369.783
323.5000	0.00501998	369.495
323.4000	0.052038	369.22
323.3000	0.147532	369.075
323.2000	0.255124	368.987
323.1000	0.202005	368.719
323.0000	0.123119	368.429
322.9000	0.157072	368.142
322.8000	0.182114	368
322.7000	0.260818	367.746
322.6000	0.273046	367.466
322.5000	0.243457	367.18
322.4000	0.18484	366.893
322.3000	0.212281	366.72
322.2000	0.288266	366.43
322.1000	0.241056	366.112
322.0000	0.172448	365.803
321.9000	0.0989608	365.627
321.8000	0.0248332	365.339
321.7000	-0.0643304	365.036
321.6000	-0.100851	364.728
321.5000	-0.150657	364.447
321.4000	-0.153613	364.305
321.3000	-0.0870931	364.096
321.2000	-0.0609715	363.886
321.1000	-0.123788	363.679
321.0000	-0.11323	363.62
320.9000	-0.0605953	363.479
320.8000	-0.0156322	363.334
320.7000	0.0952276	363.204
320.6000	0.15321	363.063
320.5000	0.144022	363.023
320.4000	0.0928989	362.856
320.3000	0.107314	362.67
320.2000	0.0527187	362.491
320.1000	-0.02212	362.421
320.0000	-0.0391553	362.256
319.9000	-0.194846	362.061
319.8000	-0.314318	361.863
319.7000	-0.453868	361.658
319.6000	-0.480154	361.437
319.5000	-0.514783	361.276
319.4000	-0.566155	361.092
319.3000	-0.607457	360.88
319.2000	-0.650739	360.768
319.1000	-0.475355	360.573
319.0000	-0.396573	360.359
318.9000	-0.413836	360.141
318.8000	-0.55783	360.019
318.7000	-0.640827	359.787
318.6000	-0.595004	359.549
318.5000	-0.463748	359.353
318.4000	-0.351982	359.155
318.3000	-0.454174	358.915
318.2000	-0.610051	358.729
318.1000	-0.638175	358.547
318.0000	-0.44981	358.37
317.9000	-0.326985	358.302
317.8000	-0.245709	358.172
317.7000	-0.190773	358.015
317.6000	-0.266842	357.829
317.5000	-0.215334	357.747
317.4000	-0.158978	357.593
317.3000	-0.125309	357.423
317.2000	-0.16308	357.236
317.1000	-0.127779	357.045
317.0000	-0.0912489	356.805
316.9000	-0.136888	356.606
316.8000	-0.0602785	356.419
316.7000	-0.0783972	356.23
316.6000	-0.119602	356.038
316.5000	-0.106167	355.889
316.4000	-0.00146563	355.727
316.3000	-0.0193758	355.553
316.2000	-0.103002	355.377
316.1000	-0.185186	355.245
316.0000	-0.245416	355.115
315.9000	-0.232041	354.951
315.8000	-0.170254	354.85
315.7000	-0.175595	354.681
315.6000	-0.26046	354.527
315.5000	-0.211674	354.353
315.4000	-0.0827309	354.25
315.3000	-0.0203666	354.058
315.2000	0.0376988	353.855
315.1000	0.0537282	353.672
315.0000	-0.00296773	353.49
314.9000	-0.0130206	353.305
314.8000	-0.00853701	353.149
314.7000	0.00468587	352.984
314.6000	-0.097936	352.817
314.5000	-0.0315993	352.668
314.4000	0.00317604	352.56
314.3000	-0.0454084	352.423
314.2000	-0.0889055	352.285
314.1000	-0.142409	352.1
314.0000	-0.205824	351.936
313.9000	-0.257849	351.776
313.8000	-0.245995	351.626
313.7000	-0.316552	351.411
313.6000	-0.346375	351.216
313.5000	-0.315638	351.037
313.4000	-0.294862	350.862
313.3000	-0.276388	350.694
313.2000	-0.230602	350.563
313.1000	-0.220896	350.417
313.0000	-0.258376	350.271
312.9000	-0.268278	350.135
312.8000	-0.290639	350.033
312.7000	-0.311001	349.898
312.6000	-0.327017	349.759
312.5000	-0.341051	349.585
312.4000	-0.353606	349.424
312.3000	-0.326852	349.241
312.2000	-0.304797	349.061
312.1000	-0.28822	348.83
312.0000	-0.332025	348.615
311.9000	-0.359276	348.411
311.8000	-0.399731	348.175
311.7000	-0.416756	347.989
311.6000	-0.429446	347.799
311.5000	-0.425213	347.644
311.4000	-0.396077	347.448
311.3000	-0.40363	347.323
311.2000	-0.419157	347.199
311.1000	-0.477126	347.094
311.0000	-0.380531	346.98
310.9000	-0.401984	346.883
310.8000	-0.428595	346.78
310.7000	-0.428986	346.689
310.6000	-0.412767	346.559
310.5000	-0.428409	346.447
310.4000	-0.399704	346.345
310.3000	-0.407327	346.254
310.2000	-0.493351	346.162
310.1000	-0.471412	346.093
310.0000	-0.433253	346.013
309.9000	-0.356703	345.944
309.8000	-0.364842	345.876
309.7000	-0.379887	345.79
309.6000	-0.328765	345.722
309.5000	-0.263533	345.608
309.4000	-0.217238	345.515
309.3000	-0.20394	345.379
309.2000	-0.241507	345.267
309.1000	-0.340208	345.094
309.0000	-0.424566	344.952
308.9000	-0.43309	344.825
308.8000	-0.507892	344.704
308.7000	-0.593915	344.593
308.6000	-0.648653	344.497
308.5000	-0.702006	344.393
308.4000	-0.704232	344.274
308.3000	-0.671307	344.203
308.2000	-0.623528	344.103
308.1000	-0.598935	344.029
308.0000	-0.632482	343.929
307.9000	-0.587325	343.842
307.8000	-0.544599	343.712
307.7000	-0.507581	343.61
307.6000	-0.484135	343.49
307.5000	-0.430505	343.334
307.4000	-0.41645	343.214
307.3000	-0.452283	343.091
307.2000	-0.442611	342.996
307.1000	-0.436666	342.872
307.0000	-0.428038	342.784
306.9000	-0.465579	342.685
306.8000	-0.527411	342.622
306.7000	-0.552317	342.554
306.6000	-0.616976	342.459
306.5000	-0.65499	342.373
306.4000	-0.662414	342.245
306.3000	-0.664955	342.147
306.2000	-0.634744	342.018
306.1000	-0.556603	341.908
306.0000	-0.495352	341.76
305.9000	-0.53938	341.648
305.8000	-0.501032	341.571
305.7000	-0.390968	341.462
305.6000	-0.363291	341.382
305.5000	-0.366762	341.299
305.4000	-0.406816	341.251
305.3000	-0.427703	341.159
305.2000	-0.437499	341.099
305.1000	-0.381407	341.027
305.0000	-0.34699	340.907
304.9000	-0.373267	340.824
304.8000	-0.350894	340.717
304.7000	-0.319065	340.624
304.6000	-0.318162	340.493
304.5000	-0.347346	340.385
304.4000	-0.36808	340.297
304.3000	-0.384148	340.181
304.2000	-0.378912	340.114
304.1000	-0.381673	340.053
304.0000	-0.396075	340.019
303.9000	-0.426595	339.938
303.8000	-0.459377	339.862
303.7000	-0.42162	339.814
303.6000	-0.446151	339.709
303.5000	-0.43312	339.637
303.4000	-0.481672	339.547
303.3000	-0.516375	339.431
303.2000	-0.567608	339.315
303.1000	-0.564896	339.229
303.0000	-0.572667	339.18
302.9000	-0.618144	339.084
302.8000	-0.598024	339.011
302.7000	-0.631751	338.956
302.6000	-0.613709	338.875
302.5000	-0.610447	338.831
302.4000	-0.564395	338.778
302.3000	-0.531054	338.684
302.2000	-0.592963	338.588
302.1000	-0.62067	338.496
302.0000	-0.632551	338.435
301.9000	-0.649792	338.346
301.8000	-0.643249	338.27
301.7000	-0.701736	338.209
301.6000	-0.767584	338.116
301.5000	-0.832831	338.067
301.4000	-0.854552	338.019
301.3000	-0.759697	337.948
301.2000	-0.718231	337.884
301.1000	-0.610703	337.826
301.0000	-0.568931	337.794
300.9000	-0.540465	337.72
300.8000	-0.416032	337.647
300.7000	-0.313497	337.588
300.6000	-0.253532	337.506
300.5000	-0.232752	337.441
300.4000	-0.189312	337.394
300.3000	-0.210707	337.316
300.2000	-0.310874	337.243
300.1000	-0.317611	337.189
300.0000	-0.306327	337.13
299.9000	-0.390524	337.077
299.8000	-0.385179	337.027
299.7000	-0.388983	336.96
299.6000	-0.446665	336.895
299.5000	-0.538125	336.827
299.4000	-0.467723	336.776
299.3000	-0.403538	336.706
299.2000	-0.412535	336.648
299.1000	-0.356734	336.606
299.0000	-0.290588	336.539
298.9000	-0.260733	336.491
298.8000	-0.227581	336.457
298.7000	-0.224542	336.402
298.6000	-0.274488	336.353
298.5000	-0.314938	336.304
298.4000	-0.311655	336.243
298.3000	-0.332031	336.187
298.2000	-0.400755	336.125
298.1000	-0.479643	336.062
298.0000	-0.503973	336.005
297.9000	-0.453116	335.957
297.8000	-0.378712	335.892
297.7000	-0.405943	335.835
297.6000	-0.440329	335.79
297.5000	-0.445253	335.723
297.4000	-0.416871	335.678
297.3000	-0.402137	335.638
297.2000	-0.436123	335.571
297.1000	-0.516111	335.518
297.0000	-0.607652	335.465
296.9000	-0.636386	335.397
296.8000	-0.631975	335.344
296.7000	-0.67121	335.302
296.6000	-0.70597	335.269
296.5000	-0.754587	335.223
296.4000	-0.749885	335.189
296.3000	-0.753921	335.161
296.2000	-0.690364	335.125
296.1000	-0.667084	335.094
296.0000	-0.713321	335.072
295.9000	-0.671716	335.028
295.8000	-0.638755	334.965
295.7000	-0.585162	334.925
295.6000	-0.541176	334.883
295.5000	-0.50438	334.824
295.4000	-0.491682	334.753
295.3000	-0.548739	334.707
295.2000	-0.567129	334.649
295.1000	-0.537804	334.583
295.0000	-0.55614	334.547
294.9000	-0.655252	334.495
294.8000	-0.708318	334.428
294.7000	-0.709797	334.386
294.6000	-0.742829	334.353
294.5000	-0.735273	334.302
294.4000	-0.672519	334.267
294.3000	-0.69185	334.239
294.2000	-0.71946	334.189
294.1000	-0.657575	334.155
294.0000	-0.63795	334.133
293.9000	-0.636465	334.087
293.8000	-0.673891	334.056
293.7000	-0.670021	334.034
293.6000	-0.702729	333.982
293.5000	-0.721099	333.918
293.4000	-0.66735	333.889
293.3000	-0.704911	333.842
293.2000	-0.703439	333.785
293.1000	-0.721162	333.76
293.0000	-0.732957	333.713
292.9000	-0.714426	333.665
292.8000	-0.734307	333.644
292.7000	-0.772855	333.62
292.6000	-0.771977	333.583
292.5000	-0.764298	333.531
292.4000	-0.733072	333.504
292.3000	-0.639569	333.46
292.2000	-0.541372	333.412
292.1000	-0.508624	333.383
292.0000	-0.454437	333.341
291.9000	-0.362978	333.289
291.8000	-0.360741	333.241
291.7000	-0.340087	333.221
291.6000	-0.322448	333.181
291.5000	-0.278787	333.136
291.4000	-0.310032	333.114
291.3000	-0.309874	333.065
291.2000	-0.302774	332.998
291.1000	-0.329091	332.93
291.0000	-0.337058	332.883
290.9000	-0.307303	332.813
290.8000	-0.355726	332.719
290.7000	-0.41801	332.62
290.6000	-0.446022	332.509
290.5000	-0.452903	332.377
290.4000	-0.446483	332.247
290.3000	-0.47774	332.131
290.2000	-0.484389	331.991
290.1000	-0.467946	331.845
290.0000	-0.491283	331.713
289.9000	-0.561238	331.621
289.8000	-0.642088	331.536
289.7000	-0.658264	331.477
289.6000	-0.703361	331.46
289.5000	-0.640877	331.483
289.4000	-0.644191	331.527
289.3000	-0.701126	331.599
289.2000	-0.696508	331.691
289.1000	-0.599096	331.804
289.0000	-0.487743	331.91
288.9000	-0.510936	332.013
288.8000	-0.496588	332.102
288.7000	-0.504142	332.179
288.6000	-0.528748	332.233
288.5000	-0.474411	332.277
288.4000	-0.412655	332.305
288.3000	-0.379702	332.323
288.2000	-0.422572	332.316
288.1000	-0.380952	332.305
288.0000	-0.324801	332.284
287.9000	-0.329217	332.247
287.8000	-0.286312	332.228
287.7000	-0.249232	332.203
287.6000	-0.27374	332.179
287.5000	-0.322172	332.142
287.4000	-0.292082	332.124
287.3000	-0.336266	332.108
287.2000	-0.463194	332.083
287.1000	-0.584415	332.064
287.0000	-0.665361	332.02
286.9000	-0.718792	331.996
286.8000	-0.744481	331.98
286.7000	-0.720885	331.961
286.6000	-0.736159	331.934
286.5000	-0.759518	331.919
286.4000	-0.753955	331.913
286.3000	-0.671703	331.916
286.2000	-0.629967	331.913
286.1000	-0.580039	331.905
286.0000	-0.563527	331.906
285.9000	-0.596404	331.897
285.8000	-0.638429	331.893
285.7000	-0.679695	331.866
285.6000	-0.669028	331.841
285.5000	-0.654173	331.836
285.4000	-0.660356	331.834
285.3000	-0.694261	331.836
285.2000	-0.749008	331.81
285.1000	-0.783812	331.795
285.0000	-0.786436	331.803
284.9000	-0.808653	331.8
284.8000	-0.836072	331.803
284.7000	-0.917747	331.782
284.6000	-0.95007	331.765
284.5000	-0.934759	331.772
284.4000	-0.969053	331.775
284.3000	-0.979712	331.786
284.2000	-0.975158	331.765
284.1000	-0.974865	331.755
284.0000	-0.920273	331.741
283.9000	-0.875111	331.747
283.8000	-0.881179	331.76
283.7000	-0.926319	331.746
283.6000	-0.903095	331.737
283.5000	-0.843674	331.725
283.4000	-0.78695	331.722
283.3000	-0.780915	331.742
283.2000	-0.789442	331.755
283.1000	-0.766871	331.761
283.0000	-0.682378	331.748
282.9000	-0.58056	331.745
282.8000	-0.509196	331.739
282.7000	-0.500862	331.752
282.6000	-0.555985	331.769
282.5000	-0.596252	331.767
282.4000	-0.586294	331.762
282.3000	-0.546879	331.758
282.2000	-0.531153	331.758
282.1000	-0.493928	331.778
282.0000	-0.500012	331.79
281.9000	-0.467779	331.794
281.8000	-0.365721	331.789
281.7000	-0.323362	331.782
281.6000	-0.312823	331.779
281.5000	-0.305969	331.777
281.4000	-0.28903	331.798
281.3000	-0.291283	331.804
281.2000	-0.281751	331.807
281.1000	-0.292143	331.803
281.0000	-0.348649	331.797
280.9000	-0.316701	331.796
280.8000	-0.291827	331.79
280.7000	-0.282981	331.791
280.6000	-0.308534	331.796
280.5000	-0.330812	331.795
280.4000	-0.352394	331.795
280.3000	-0.355922	331.796
280.2000	-0.319951	331.797
280.1000	-0.300282	331.796
280.0000	-0.311639	331.797
279.9000	-0.345703	331.795
279.8000	-0.322521	331.781
279.7000	-0.332273	331.778
279.6000	-0.338157	331.769
279.5000	-0.333743	331.764
279.4000	-0.431385	331.756
279.3000	-0.543008	331.751
279.2000	-0.612797	331.754
279.1000	-0.623469	331.759
