TITLE	Seo_0.8uM
DATA TYPE	
ORIGIN	JASCO
OWNER	
DATE	24/04/08
TIME	15:35:50
SPECTROMETER/DATA SYSTEM	
LOCALE	1033
RESOLUTION	
DELTAX	-0.1
XUNITS	NANOMETERS
YUNITS	CD [mdeg]
Y2UNITS	HT [V]
FIRSTX	  350.0000
LASTX	  190.0000
NPOINTS	    1601
FIRSTY	    -0.92998
MAXY	     3.81395
MINY	    -2.02777
XYDATA
350.0000	-0.929975	498.401
349.9000	-0.985606	497.812
349.8000	-0.960869	496.943
349.7000	-0.953018	496.057
349.6000	-1.14333	495.399
349.5000	-1.25551	494.818
349.4000	-1.18459	493.925
349.3000	-0.90717	493.293
349.2000	-0.545846	492.763
349.1000	-0.494278	491.926
349.0000	-0.604068	491.298
348.9000	-0.841261	490.748
348.8000	-1.165	489.894
348.7000	-1.23309	489.047
348.6000	-1.46696	488.445
348.5000	-1.86441	487.921
348.4000	-1.95413	487.064
348.3000	-1.79484	486.424
348.2000	-1.71021	485.857
348.1000	-1.74719	484.981
348.0000	-1.4159	484.331
347.9000	-1.29032	483.753
347.8000	-1.12773	482.88
347.7000	-1.10166	481.993
347.6000	-1.27713	481.352
347.5000	-1.51429	480.822
347.4000	-1.5585	480.01
347.3000	-1.08939	479.424
347.2000	-1.0393	478.922
347.1000	-1.23707	478.171
347.0000	-1.38996	477.628
346.9000	-1.35975	477.173
346.8000	-1.14228	476.447
346.7000	-1.0157	475.705
346.6000	-0.76065	475.163
346.5000	-1.08704	474.413
346.4000	-1.38212	473.642
346.3000	-1.20728	473.047
346.2000	-0.934164	472.267
346.1000	-0.702062	471.469
346.0000	-0.589456	470.871
345.9000	-0.452769	470.352
345.8000	-0.310044	469.553
345.7000	-0.0644206	468.969
345.6000	0.101951	468.476
345.5000	0.265656	467.777
345.4000	0.152562	467.27
345.3000	0.0781474	466.844
345.2000	-0.129153	466.144
345.1000	-0.151215	465.445
345.0000	-0.309563	464.935
344.9000	-0.520422	464.275
344.8000	-0.774585	463.595
344.7000	-0.745969	463.068
344.6000	-0.648195	462.382
344.5000	-0.735126	461.675
344.4000	-0.706988	461.155
344.3000	-0.810374	460.459
344.2000	-0.958732	459.747
344.1000	-1.16345	459.203
344.0000	-1.1932	458.535
343.9000	-1.33739	457.863
343.8000	-1.42153	457.372
343.7000	-1.4383	456.956
343.6000	-1.43687	456.308
343.5000	-1.39485	455.852
343.4000	-1.28664	455.482
343.3000	-0.97898	454.884
343.2000	-0.687905	454.443
343.1000	-0.514493	454.052
343.0000	-0.548821	453.456
342.9000	-0.549931	452.842
342.8000	-0.512786	452.389
342.7000	-0.541526	451.778
342.6000	-0.507019	451.152
342.5000	-0.719603	450.68
342.4000	-0.829153	450.076
342.3000	-0.898605	449.463
342.2000	-0.838882	448.992
342.1000	-0.793622	448.403
342.0000	-0.692732	447.82
341.9000	-0.491759	447.415
341.8000	-0.342773	446.879
341.7000	-0.270693	446.339
341.6000	-0.306227	445.948
341.5000	-0.406587	445.451
341.4000	-0.576235	444.946
341.3000	-0.770662	444.569
341.2000	-0.87126	444.019
341.1000	-1.00187	443.451
341.0000	-1.10811	443.022
340.9000	-1.08565	442.458
340.8000	-0.741486	441.886
340.7000	-0.522746	441.437
340.6000	-0.332261	440.875
340.5000	-0.0232554	440.307
340.4000	0.114772	439.891
340.3000	-0.000928752	439.351
340.2000	-0.0498108	438.821
340.1000	-0.241488	438.433
340.0000	-0.551056	437.953
339.9000	-0.915545	437.472
339.8000	-1.08602	437.112
339.7000	-1.26597	436.661
339.6000	-1.40287	436.211
339.5000	-1.38047	435.903
339.4000	-1.30121	435.455
339.3000	-1.27143	434.979
339.2000	-1.15393	434.444
339.1000	-0.986924	433.956
339.0000	-0.908422	433.451
338.9000	-0.69196	432.887
338.8000	-0.613095	432.363
338.7000	-0.773019	431.823
338.6000	-0.812452	431.247
338.5000	-0.812853	430.746
338.4000	-0.813687	430.385
338.3000	-0.914074	429.943
338.2000	-0.838823	429.504
338.1000	-0.94919	429.189
338.0000	-0.999754	428.761
337.9000	-0.764985	428.338
337.8000	-0.612778	428.041
337.7000	-0.689807	427.647
337.6000	-0.759667	427.233
337.5000	-0.766207	426.917
337.4000	-0.6892	426.496
337.3000	-0.652855	426.054
337.2000	-0.560527	425.576
337.1000	-0.618324	425.146
337.0000	-0.743406	424.708
336.9000	-0.71767	424.228
336.8000	-0.504287	423.812
336.7000	-0.315071	423.397
336.6000	-0.16216	422.958
336.5000	-0.0603139	422.574
336.4000	-0.0896963	422.306
336.3000	-0.19373	421.914
336.2000	-0.14518	421.517
336.1000	-0.178	421.231
336.0000	-0.371973	420.857
335.9000	-0.552602	420.456
335.8000	-0.762425	420
335.7000	-0.95625	419.582
335.6000	-1.11831	419.153
335.5000	-1.01393	418.723
335.4000	-0.791227	418.357
335.3000	-0.698744	417.989
335.2000	-0.455899	417.6
335.1000	-0.307078	417.258
335.0000	-0.256125	417.033
334.9000	-0.134569	416.72
334.8000	-0.0542419	416.392
334.7000	0.00766907	416.018
334.6000	-0.193324	415.678
334.5000	-0.256725	415.331
334.4000	-0.227488	414.935
334.3000	-0.134801	414.571
334.2000	-0.0239532	414.196
334.1000	-0.113897	413.769
334.0000	-0.19282	413.388
333.9000	-0.255849	413.114
333.8000	-0.319771	412.769
333.7000	-0.420517	412.413
333.6000	-0.47737	412.026
333.5000	-0.59788	411.695
333.4000	-0.802073	411.361
333.3000	-0.799329	411.02
333.2000	-0.799269	410.729
333.1000	-0.769586	410.431
333.0000	-0.764726	410.117
332.9000	-0.657142	409.841
332.8000	-0.644037	409.499
332.7000	-0.595165	409.191
332.6000	-0.421067	408.874
332.5000	-0.262847	408.527
332.4000	-0.0896922	408.225
332.3000	-0.0450267	407.916
332.2000	-0.0890818	407.552
332.1000	-0.086731	407.215
332.0000	-0.140157	406.876
331.9000	-0.199533	406.593
331.8000	-0.372271	406.306
331.7000	-0.581977	405.981
331.6000	-0.754137	405.681
331.5000	-0.834065	405.264
331.4000	-0.817191	404.933
331.3000	-0.8604	404.638
331.2000	-0.871761	404.304
331.1000	-0.849995	404.006
331.0000	-0.757574	403.704
330.9000	-0.716669	403.397
330.8000	-0.704377	403.125
330.7000	-0.659945	402.802
330.6000	-0.692766	402.515
330.5000	-0.657714	402.232
330.4000	-0.690825	401.958
330.3000	-0.68432	401.731
330.2000	-0.669912	401.358
330.1000	-0.635115	401.049
330.0000	-0.640633	400.763
329.9000	-0.669167	400.479
329.8000	-0.654742	400.238
329.7000	-0.692853	399.871
329.6000	-0.730544	399.553
329.5000	-0.790414	399.249
329.4000	-0.887716	398.952
329.3000	-0.970036	398.703
329.2000	-0.859109	398.333
329.1000	-0.855418	398.028
329.0000	-0.912545	397.758
328.9000	-0.910741	397.507
328.8000	-0.800987	397.306
328.7000	-0.714074	396.969
328.6000	-0.600353	396.698
328.5000	-0.449989	396.455
328.4000	-0.642997	396.219
328.3000	-0.773053	396.025
328.2000	-0.727046	395.697
328.1000	-0.656536	395.407
328.0000	-0.689687	395.128
327.9000	-0.785212	394.88
327.8000	-0.722664	394.688
327.7000	-0.64137	394.396
327.6000	-0.643691	394.154
327.5000	-0.540175	393.938
327.4000	-0.531801	393.684
327.3000	-0.463403	393.483
327.2000	-0.38805	393.189
327.1000	-0.292397	392.942
327.0000	-0.290526	392.706
326.9000	-0.45787	392.444
326.8000	-0.526746	392.212
326.7000	-0.481921	391.891
326.6000	-0.4622	391.653
326.5000	-0.441501	391.454
326.4000	-0.52391	391.211
326.3000	-0.611807	390.995
326.2000	-0.639553	390.704
326.1000	-0.616209	390.474
326.0000	-0.671232	390.183
325.9000	-0.720496	389.961
325.8000	-0.681243	389.781
325.7000	-0.660493	389.556
325.6000	-0.609707	389.406
325.5000	-0.567552	389.104
325.4000	-0.475231	388.848
325.3000	-0.401426	388.614
325.2000	-0.335212	388.388
325.1000	-0.303758	388.176
325.0000	-0.382544	387.846
324.9000	-0.504563	387.542
324.8000	-0.507153	387.203
324.7000	-0.652	386.989
324.6000	-0.79863	386.844
324.5000	-0.971382	386.564
324.4000	-1.02424	386.324
324.3000	-0.954792	386.101
324.2000	-0.899593	385.953
324.1000	-0.84398	385.698
324.0000	-0.79718	385.474
323.9000	-0.722547	385.264
323.8000	-0.573415	385.057
323.7000	-0.3689	384.942
323.6000	-0.335556	384.663
323.5000	-0.290888	384.379
323.4000	-0.278482	384.093
323.3000	-0.342582	383.909
323.2000	-0.514231	383.77
323.1000	-0.607575	383.468
323.0000	-0.664964	383.16
322.9000	-0.748607	382.849
322.8000	-0.837072	382.681
322.7000	-0.944715	382.422
322.6000	-1.03828	382.151
322.5000	-1.0744	381.875
322.4000	-1.04604	381.596
322.3000	-1.07855	381.417
322.2000	-1.13454	381.139
322.1000	-1.09174	380.85
322.0000	-0.932767	380.557
321.9000	-0.795929	380.377
321.8000	-0.758257	380.067
321.7000	-0.6885	379.755
321.6000	-0.682235	379.443
321.5000	-0.661861	379.155
321.4000	-0.531614	378.998
321.3000	-0.482135	378.76
321.2000	-0.552612	378.528
321.1000	-0.584382	378.305
321.0000	-0.592212	378.233
320.9000	-0.572427	378.095
320.8000	-0.567751	377.955
320.7000	-0.429572	377.826
320.6000	-0.49942	377.684
320.5000	-0.622233	377.638
320.4000	-0.648578	377.499
320.3000	-0.655892	377.347
320.2000	-0.751452	377.186
320.1000	-0.756329	377.131
320.0000	-0.71414	376.954
319.9000	-0.797751	376.756
319.8000	-0.776263	376.572
319.7000	-0.691203	376.385
319.6000	-0.644373	376.141
319.5000	-0.752072	375.934
319.4000	-0.778412	375.723
319.3000	-0.867002	375.499
319.2000	-0.820629	375.395
319.1000	-0.758868	375.198
319.0000	-0.708788	374.974
318.9000	-0.634901	374.753
318.8000	-0.603895	374.642
318.7000	-0.505908	374.441
318.6000	-0.476662	374.229
318.5000	-0.475245	374.044
318.4000	-0.596747	373.853
318.3000	-0.68841	373.61
318.2000	-0.689641	373.425
318.1000	-0.756118	373.229
318.0000	-0.880396	373.036
317.9000	-0.952486	372.953
317.8000	-0.925981	372.793
317.7000	-0.777804	372.61
317.6000	-0.559332	372.417
317.5000	-0.571305	372.328
317.4000	-0.687007	372.152
317.3000	-0.754381	371.966
317.2000	-0.813334	371.783
317.1000	-0.808733	371.593
317.0000	-0.87542	371.358
316.9000	-0.907557	371.175
316.8000	-1.00869	371.007
316.7000	-1.01935	370.836
316.6000	-0.845705	370.655
316.5000	-0.736651	370.518
316.4000	-0.641702	370.364
316.3000	-0.534223	370.194
316.2000	-0.430818	370.002
316.1000	-0.4341	369.849
316.0000	-0.404459	369.686
315.9000	-0.434773	369.488
315.8000	-0.410159	369.374
315.7000	-0.404761	369.19
315.6000	-0.368144	369.013
315.5000	-0.462603	368.835
315.4000	-0.620344	368.737
315.3000	-0.669084	368.554
315.2000	-0.711732	368.364
315.1000	-0.648779	368.197
315.0000	-0.653925	368.031
314.9000	-0.71311	367.837
314.8000	-0.718851	367.68
314.7000	-0.628754	367.511
314.6000	-0.522679	367.336
314.5000	-0.445627	367.162
314.4000	-0.427056	367.033
314.3000	-0.501162	366.881
314.2000	-0.491723	366.727
314.1000	-0.489159	366.538
314.0000	-0.54638	366.383
313.9000	-0.676713	366.232
313.8000	-0.832464	366.081
313.7000	-0.984558	365.855
313.6000	-1.10192	365.657
313.5000	-1.20086	365.47
313.4000	-1.2815	365.283
313.3000	-1.32278	365.096
313.2000	-1.34939	364.942
313.1000	-1.39536	364.778
313.0000	-1.29939	364.616
312.9000	-1.17478	364.468
312.8000	-1.11429	364.365
312.7000	-1.0758	364.235
312.6000	-1.04931	364.103
312.5000	-0.977941	363.925
312.4000	-0.959507	363.77
312.3000	-0.936991	363.607
312.2000	-0.967711	363.44
312.1000	-1.02125	363.21
312.0000	-0.930761	363.008
311.9000	-0.874416	362.808
311.8000	-0.828565	362.55
311.7000	-0.756211	362.358
311.6000	-0.658805	362.177
311.5000	-0.620841	362.015
311.4000	-0.598424	361.792
311.3000	-0.554128	361.653
311.2000	-0.532196	361.534
311.1000	-0.512757	361.432
311.0000	-0.534394	361.311
310.9000	-0.614562	361.212
310.8000	-0.732815	361.115
310.7000	-0.820248	361.026
310.6000	-0.859723	360.894
310.5000	-0.88722	360.785
310.4000	-0.98894	360.679
310.3000	-1.03665	360.582
310.2000	-0.989028	360.488
310.1000	-1.02923	360.415
310.0000	-1.10098	360.334
309.9000	-1.0808	360.26
309.8000	-0.999891	360.189
309.7000	-0.980656	360.119
309.6000	-0.942729	360.061
309.5000	-0.92483	359.931
309.4000	-1.01415	359.83
309.3000	-1.00464	359.716
309.2000	-0.960491	359.618
309.1000	-0.907863	359.431
309.0000	-0.866782	359.279
308.9000	-0.827745	359.146
308.8000	-0.820947	359.014
308.7000	-0.763529	358.898
308.6000	-0.692781	358.806
308.5000	-0.636308	358.704
308.4000	-0.635783	358.564
308.3000	-0.648483	358.485
308.2000	-0.770609	358.395
308.1000	-0.839235	358.325
308.0000	-0.855916	358.21
307.9000	-0.942066	358.115
307.8000	-1.03688	357.988
307.7000	-1.05328	357.884
307.6000	-1.11483	357.745
307.5000	-1.15492	357.584
307.4000	-1.04958	357.456
307.3000	-0.948667	357.316
307.2000	-0.947836	357.208
307.1000	-0.872741	357.089
307.0000	-0.902321	356.998
306.9000	-0.980478	356.879
306.8000	-0.963908	356.815
306.7000	-0.897906	356.763
306.6000	-0.934589	356.665
306.5000	-1.00723	356.58
306.4000	-1.062	356.47
306.3000	-1.16127	356.384
306.2000	-1.13624	356.245
306.1000	-1.04135	356.134
306.0000	-0.972422	355.999
305.9000	-0.993035	355.89
305.8000	-1.00888	355.803
305.7000	-0.982315	355.703
305.6000	-0.914077	355.632
305.5000	-0.872153	355.53
305.4000	-0.817641	355.473
305.3000	-0.865735	355.394
305.2000	-0.901316	355.34
305.1000	-0.876782	355.252
305.0000	-0.901864	355.133
304.9000	-0.903279	355.053
304.8000	-0.932217	354.925
304.7000	-0.921974	354.823
304.6000	-0.950905	354.696
304.5000	-0.987205	354.575
304.4000	-1.02771	354.467
304.3000	-1.02109	354.357
304.2000	-1.03527	354.298
304.1000	-1.04371	354.217
304.0000	-1.08341	354.173
303.9000	-1.11276	354.106
303.8000	-1.13084	354.025
303.7000	-1.16864	353.967
303.6000	-1.13183	353.872
303.5000	-1.13353	353.801
303.4000	-1.14502	353.688
303.3000	-1.24491	353.564
303.2000	-1.2974	353.452
303.1000	-1.27766	353.352
303.0000	-1.35133	353.29
302.9000	-1.34148	353.206
302.8000	-1.35189	353.125
302.7000	-1.31123	353.059
302.6000	-1.30541	352.982
302.5000	-1.1969	352.948
302.4000	-1.12865	352.888
302.3000	-1.13457	352.79
302.2000	-1.03114	352.703
302.1000	-0.950673	352.605
302.0000	-0.883431	352.54
301.9000	-0.87931	352.452
301.8000	-0.834033	352.373
301.7000	-0.851597	352.304
301.6000	-0.824505	352.221
301.5000	-0.77834	352.184
301.4000	-0.80713	352.129
301.3000	-0.887092	352.054
301.2000	-0.98502	351.99
301.1000	-1.05762	351.923
301.0000	-1.11918	351.884
300.9000	-1.12757	351.807
300.8000	-1.16968	351.719
300.7000	-1.24068	351.642
300.6000	-1.2603	351.557
300.5000	-1.23831	351.49
300.4000	-1.1771	351.44
300.3000	-1.21823	351.362
300.2000	-1.23695	351.289
300.1000	-1.24454	351.229
300.0000	-1.23852	351.165
299.9000	-1.2578	351.114
299.8000	-1.28274	351.059
299.7000	-1.37443	350.988
299.6000	-1.38607	350.924
299.5000	-1.32387	350.866
299.4000	-1.23493	350.823
299.3000	-1.17519	350.759
299.2000	-1.15489	350.704
299.1000	-1.14939	350.662
299.0000	-1.05027	350.595
298.9000	-0.951976	350.548
298.8000	-0.90022	350.512
298.7000	-0.93645	350.45
298.6000	-0.960781	350.396
298.5000	-1.04443	350.335
298.4000	-1.11973	350.271
298.3000	-1.09163	350.217
298.2000	-1.08208	350.158
298.1000	-1.10241	350.098
298.0000	-1.07477	350.042
297.9000	-1.02804	349.991
297.8000	-1.02687	349.922
297.7000	-0.998504	349.87
297.6000	-0.879185	349.834
297.5000	-0.84543	349.767
297.4000	-0.896064	349.719
297.3000	-0.91795	349.674
297.2000	-0.981844	349.603
297.1000	-1.00103	349.555
297.0000	-0.996818	349.503
296.9000	-0.90916	349.44
296.8000	-0.846981	349.389
296.7000	-0.842985	349.346
296.6000	-0.809182	349.313
296.5000	-0.836457	349.265
296.4000	-0.875021	349.229
296.3000	-0.968141	349.197
296.2000	-1.0623	349.153
296.1000	-1.10322	349.11
296.0000	-1.22981	349.071
295.9000	-1.29825	349.024
295.8000	-1.3844	348.951
295.7000	-1.37984	348.905
295.6000	-1.34538	348.858
295.5000	-1.32054	348.792
295.4000	-1.30569	348.718
295.3000	-1.32752	348.674
295.2000	-1.36079	348.614
295.1000	-1.35765	348.545
295.0000	-1.33696	348.512
294.9000	-1.34021	348.462
294.8000	-1.31023	348.397
294.7000	-1.29563	348.36
294.6000	-1.25386	348.32
294.5000	-1.31338	348.269
294.4000	-1.35372	348.233
294.3000	-1.35985	348.202
294.2000	-1.37595	348.146
294.1000	-1.35374	348.107
294.0000	-1.38039	348.079
293.9000	-1.38757	348.026
293.8000	-1.35951	347.994
293.7000	-1.26342	347.97
293.6000	-1.2382	347.911
293.5000	-1.21244	347.841
293.4000	-1.22667	347.802
293.3000	-1.20176	347.756
293.2000	-1.17122	347.7
293.1000	-1.16978	347.674
293.0000	-1.14468	347.627
292.9000	-1.13478	347.575
292.8000	-1.03988	347.556
292.7000	-1.02204	347.531
292.6000	-0.973697	347.492
292.5000	-1.02459	347.432
292.4000	-1.01623	347.394
292.3000	-0.993723	347.336
292.2000	-0.980852	347.281
292.1000	-0.943561	347.253
292.0000	-0.96745	347.203
291.9000	-1.00425	347.147
291.8000	-1.07419	347.097
291.7000	-1.13277	347.072
291.6000	-1.15847	347.024
291.5000	-1.25142	346.97
291.4000	-1.31253	346.939
291.3000	-1.42777	346.877
291.2000	-1.462	346.796
291.1000	-1.48235	346.722
291.0000	-1.44136	346.667
290.9000	-1.38548	346.588
290.8000	-1.33106	346.491
290.7000	-1.26914	346.386
290.6000	-1.22348	346.268
290.5000	-1.17529	346.128
290.4000	-1.11623	345.986
290.3000	-1.0309	345.86
290.2000	-0.971632	345.709
290.1000	-0.999192	345.545
290.0000	-1.04022	345.4
289.9000	-1.06429	345.303
289.8000	-1.12029	345.216
289.7000	-1.12959	345.158
289.6000	-1.17835	345.137
289.5000	-1.22123	345.158
289.4000	-1.25616	345.207
289.3000	-1.24647	345.286
289.2000	-1.23216	345.388
289.1000	-1.17704	345.51
289.0000	-1.13089	345.62
288.9000	-1.14156	345.729
288.8000	-1.06282	345.827
288.7000	-1.03066	345.913
288.6000	-1.05737	345.976
288.5000	-1.04368	346.02
288.4000	-1.02999	346.048
288.3000	-1.06102	346.063
288.2000	-1.05097	346.059
288.1000	-1.03162	346.049
288.0000	-1.06467	346.026
287.9000	-1.11359	345.987
287.8000	-1.0404	345.964
287.7000	-1.02586	345.933
287.6000	-0.97969	345.911
287.5000	-0.93024	345.868
287.4000	-0.911962	345.841
287.3000	-0.898433	345.82
287.2000	-0.849662	345.797
287.1000	-0.80906	345.781
287.0000	-0.882347	345.734
286.9000	-0.895177	345.709
286.8000	-0.839802	345.696
286.7000	-0.868096	345.675
286.6000	-0.93692	345.65
286.5000	-1.01805	345.639
286.4000	-1.12192	345.626
286.3000	-1.23655	345.62
286.2000	-1.36051	345.614
286.1000	-1.38371	345.609
286.0000	-1.47062	345.609
285.9000	-1.52639	345.606
285.8000	-1.50923	345.612
285.7000	-1.52255	345.587
285.6000	-1.51717	345.57
285.5000	-1.50772	345.573
285.4000	-1.4295	345.574
285.3000	-1.38492	345.578
285.2000	-1.3202	345.552
285.1000	-1.20061	345.538
285.0000	-1.21942	345.539
284.9000	-1.16267	345.536
284.8000	-1.09132	345.54
284.7000	-1.06138	345.512
284.6000	-1.00861	345.492
284.5000	-0.955887	345.497
284.4000	-1.00056	345.5
284.3000	-1.06886	345.506
284.2000	-1.07873	345.486
284.1000	-1.04655	345.476
284.0000	-1.00863	345.456
283.9000	-1.00715	345.458
283.8000	-1.00384	345.474
283.7000	-1.05119	345.462
283.6000	-1.12641	345.449
283.5000	-1.16461	345.439
283.4000	-1.17444	345.437
283.3000	-1.17268	345.452
283.2000	-1.14905	345.472
283.1000	-1.07337	345.486
283.0000	-1.06058	345.48
282.9000	-1.05636	345.48
282.8000	-0.966189	345.481
282.7000	-0.872037	345.498
282.6000	-0.894238	345.508
282.5000	-0.892525	345.508
282.4000	-0.871758	345.505
282.3000	-0.917318	345.5
282.2000	-0.907096	345.498
282.1000	-0.912732	345.512
282.0000	-0.941804	345.523
281.9000	-0.990258	345.526
281.8000	-0.949921	345.525
281.7000	-0.952525	345.523
281.6000	-1.01709	345.522
281.5000	-1.08103	345.518
281.4000	-1.11482	345.538
281.3000	-1.11279	345.549
281.2000	-1.12625	345.555
281.1000	-1.16488	345.559
281.0000	-1.18002	345.558
280.9000	-1.18251	345.556
280.8000	-1.17056	345.55
280.7000	-1.14872	345.546
280.6000	-1.10451	345.549
280.5000	-1.14737	345.534
280.4000	-1.17462	345.521
280.3000	-1.12649	345.505
280.2000	-1.02485	345.495
280.1000	-0.919133	345.49
280.0000	-0.790033	345.486
279.9000	-0.733084	345.479
279.8000	-0.698025	345.459
279.7000	-0.650144	345.454
279.6000	-0.531647	345.45
279.5000	-0.510705	345.443
279.4000	-0.508345	345.438
279.3000	-0.582958	345.429
279.2000	-0.664072	345.421
279.1000	-0.725582	345.417
279.0000	-0.730907	345.418
278.9000	-0.773318	345.411
278.8000	-0.833757	345.422
278.7000	-0.836981	345.439
278.6000	-0.83006	345.461
278.5000	-0.851424	345.48
278.4000	-0.85305	345.499
278.3000	-0.904758	345.52
