TITLE	Doxer_0.8uM
DATA TYPE	
ORIGIN	JASCO
OWNER	
DATE	24/04/08
TIME	16:11:32
SPECTROMETER/DATA SYSTEM	
LOCALE	1033
RESOLUTION	
DELTAX	-0.1
XUNITS	NANOMETERS
YUNITS	Mol. Ellip.
Y2UNITS	HT [V]
FIRSTX	  350.0000
LASTX	  190.0000
NPOINTS	    1601
FIRSTY	-162790.62500
MAXY	206952.92188
MINY	-183470.75000
XYDATA
350.0000	-162791	499.286
349.9000	-176612	498.653
349.8000	-133483	497.741
349.7000	-80886	496.818
349.6000	-55544.6	496.149
349.5000	-54099.7	495.569
349.4000	-47798.9	494.68
349.3000	-26454.2	494.051
349.2000	-33093	493.515
349.1000	41035.1	492.69
349.0000	101369	492.087
348.9000	83709.2	491.544
348.8000	65181.2	490.711
348.7000	84310.7	489.878
348.6000	134819	489.298
348.5000	137217	488.784
348.4000	124879	487.926
348.3000	117259	487.289
348.2000	73379.7	486.72
348.1000	66044.2	485.859
348.0000	76157.5	485.207
347.9000	66066.4	484.623
347.8000	28065.5	483.744
347.7000	-12942.3	482.85
347.6000	-39113.2	482.214
347.5000	-47056.1	481.692
347.4000	-36359.2	480.878
347.3000	-12418	480.272
347.2000	-10530.7	479.76
347.1000	1922.59	479.014
347.0000	9464.48	478.474
346.9000	493.051	478.018
346.8000	7983.82	477.292
346.7000	27684.2	476.556
346.6000	15217.8	476.01
346.5000	3615.43	475.277
346.4000	-13234.1	474.524
346.3000	-11384.1	473.935
346.2000	-3980.84	473.157
346.1000	5745.47	472.358
346.0000	8681.5	471.761
345.9000	-16510.1	471.234
345.8000	-39530.1	470.423
345.7000	-76924.2	469.822
345.6000	-80688.3	469.323
345.5000	-93024.4	468.608
345.4000	-109226	468.088
345.3000	-119711	467.653
345.2000	-107268	466.964
345.1000	-105762	466.266
345.0000	-115835	465.757
344.9000	-109355	465.112
344.8000	-99467.8	464.448
344.7000	-115461	463.928
344.6000	-122057	463.239
344.5000	-124631	462.534
344.4000	-115866	462.01
344.3000	-119779	461.321
344.2000	-82831.7	460.636
344.1000	-65354.3	460.112
344.0000	-65014	459.427
343.9000	-41790.6	458.742
343.8000	-3570.61	458.253
343.7000	4434.38	457.834
343.6000	9220.92	457.195
343.5000	19708	456.736
343.4000	26941.3	456.356
343.3000	28604.5	455.724
343.2000	22609.2	455.263
343.1000	-8339.51	454.862
343.0000	-38004.9	454.275
342.9000	-23528.4	453.678
342.8000	-8927.41	453.228
342.7000	-27504.4	452.597
342.6000	-24930.9	451.955
342.5000	-50323.2	451.479
342.4000	-50861.8	450.894
342.3000	-45828.9	450.298
342.2000	-51190.1	449.828
342.1000	-71480.2	449.218
342.0000	-99895.9	448.614
341.9000	-99028.1	448.2
341.8000	-102617	447.655
341.7000	-79150.8	447.11
341.6000	-69317.4	446.708
341.5000	-58010.6	446.196
341.4000	-41633.9	445.679
341.3000	-40998.9	445.295
341.2000	-42356.8	444.744
341.1000	-50734.4	444.166
341.0000	-60967.4	443.728
340.9000	-73066.6	443.162
340.8000	-69335.1	442.579
340.7000	-65059.5	442.122
340.6000	-74189.4	441.551
340.5000	-70116.6	440.98
340.4000	-56282.7	440.57
340.3000	-42043.6	440.04
340.2000	-49015.3	439.503
340.1000	-66412.5	439.112
340.0000	-90351.8	438.617
339.9000	-114893	438.126
339.8000	-106272	437.767
339.7000	-94693.1	437.315
339.6000	-115983	436.845
339.5000	-118945	436.523
339.4000	-112324	436.069
339.3000	-73900.8	435.595
339.2000	-55132.3	435.081
339.1000	-51956.8	434.614
339.0000	-56587.6	434.126
338.9000	-62181.3	433.553
338.8000	-34487.1	433.03
338.7000	-46531.8	432.491
338.6000	-63873.4	431.916
338.5000	-89613.6	431.416
338.4000	-99714.2	431.046
338.3000	-72884.5	430.594
338.2000	-35871.8	430.149
338.1000	-16849.7	429.842
338.0000	-17455.4	429.424
337.9000	-13567.2	429.002
337.8000	-3830.85	428.708
337.7000	8660.61	428.32
337.6000	16946.5	427.911
337.5000	7427.91	427.589
337.4000	-31789.9	427.166
337.3000	-54832.1	426.728
337.2000	-92543.8	426.24
337.1000	-107002	425.813
337.0000	-124866	425.377
336.9000	-132434	424.9
336.8000	-129732	424.485
336.7000	-120994	424.074
336.6000	-109425	423.623
336.5000	-117456	423.211
336.4000	-97799.5	422.936
336.3000	-85845.1	422.536
336.2000	-83990.6	422.124
336.1000	-79896.9	421.823
336.0000	-83719.2	421.449
335.9000	-102890	421.049
335.8000	-111529	420.601
335.7000	-107749	420.199
335.6000	-101728	419.78
335.5000	-89271.8	419.356
335.4000	-77094.1	418.994
335.3000	-73102.2	418.631
335.2000	-69251.8	418.246
335.1000	-55588.7	417.91
335.0000	-54338.3	417.689
334.9000	-48396.5	417.371
334.8000	-47841.5	417.039
334.7000	-57833.1	416.672
334.6000	-66938.3	416.349
334.5000	-68362.6	416.014
334.4000	-74152.9	415.611
334.3000	-79334.1	415.228
334.2000	-88450.7	414.832
334.1000	-86233.3	414.399
334.0000	-97476.3	414.014
333.9000	-104530	413.729
333.8000	-109781	413.375
333.7000	-116131	413.015
333.6000	-120120	412.625
333.5000	-118284	412.296
333.4000	-103068	411.973
333.3000	-101767	411.632
333.2000	-98349.4	411.341
333.1000	-93593.9	411.043
333.0000	-93015.4	410.711
332.9000	-93014.1	410.406
332.8000	-92840.3	410.054
332.7000	-97003.3	409.74
332.6000	-96149	409.417
332.5000	-118845	409.053
332.4000	-136190	408.735
332.3000	-145986	408.415
332.2000	-143191	408.056
332.1000	-143044	407.725
332.0000	-132411	407.391
331.9000	-124396	407.108
331.8000	-142297	406.816
331.7000	-137407	406.493
331.6000	-110958	406.203
331.5000	-89010.9	405.788
331.4000	-71454.9	405.456
331.3000	-60378.9	405.167
331.2000	-56503.5	404.832
331.1000	-72461.8	404.52
331.0000	-76304	404.204
330.9000	-70436.5	403.884
330.8000	-68184.8	403.602
330.7000	-77077.3	403.283
330.6000	-93136	403.002
330.5000	-95195.1	402.726
330.4000	-95442.6	402.432
330.3000	-104777	402.179
330.2000	-101554	401.816
330.1000	-104671	401.519
330.0000	-121293	401.249
329.9000	-134358	400.956
329.8000	-138830	400.699
329.7000	-147408	400.348
329.6000	-155953	400.069
329.5000	-148021	399.824
329.4000	-143090	399.524
329.3000	-123809	399.26
329.2000	-109703	398.896
329.1000	-98636.9	398.609
329.0000	-81616	398.363
328.9000	-63044.9	398.082
328.8000	-54584.4	397.829
328.7000	-49692.2	397.481
328.6000	-32821	397.234
328.5000	-34958.1	397.026
328.4000	-39815.1	396.769
328.3000	-35900.6	396.542
328.2000	-33767.1	396.233
328.1000	-36989.8	395.989
328.0000	-46130.5	395.774
327.9000	-47489.4	395.503
327.8000	-49648.4	395.259
327.7000	-41824.5	394.975
327.6000	-43151	394.775
327.5000	-51485.6	394.617
327.4000	-45125.3	394.352
327.3000	-37480.3	394.11
327.2000	-36994.9	393.805
327.1000	-36865.6	393.583
327.0000	-38967.7	393.405
326.9000	-45475.4	393.13
326.8000	-46948.3	392.855
326.7000	-49021.2	392.535
326.6000	-58265	392.326
326.5000	-71345.9	392.168
326.4000	-80230.5	391.895
326.3000	-80572.2	391.638
326.2000	-91167.9	391.347
326.1000	-99661.5	391.143
326.0000	-100584	390.829
325.9000	-97260.9	390.55
325.8000	-93669.2	390.285
325.7000	-92948.6	390.036
325.6000	-85699.9	389.902
325.5000	-77665.3	389.613
325.4000	-71679.8	389.336
325.3000	-72023.6	389.056
325.2000	-75691.4	388.89
325.1000	-75711.7	388.774
325.0000	-73231.1	388.489
324.9000	-78049	388.185
324.8000	-83454	387.861
324.7000	-95980.8	387.689
324.6000	-86385.7	387.602
324.5000	-73627.4	387.329
324.4000	-59871.2	387.055
324.3000	-46536.7	386.8
324.2000	-54665.2	386.655
324.1000	-49888.3	386.38
324.0000	-41255.3	386.111
323.9000	-47438.5	385.833
323.8000	-59154.9	385.583
323.7000	-63884.4	385.464
323.6000	-73426.6	385.189
323.5000	-76791.1	384.886
323.4000	-71657.7	384.59
323.3000	-58920.2	384.436
323.2000	-51766.1	384.347
323.1000	-52754.7	384.078
323.0000	-49469.2	383.784
322.9000	-43841.3	383.488
322.8000	-40626.7	383.347
322.7000	-50421.8	383.094
322.6000	-58013.6	382.812
322.5000	-49090.9	382.537
322.4000	-48253.8	382.256
322.3000	-41356.3	382.089
322.2000	-38549.7	381.786
322.1000	-40844.5	381.456
322.0000	-53880.7	381.122
321.9000	-48671.6	380.928
321.8000	-41198.9	380.626
321.7000	-50663.6	380.305
321.6000	-60661.8	379.977
321.5000	-64893.2	379.674
321.4000	-69374.8	379.522
321.3000	-72193.1	379.311
321.2000	-75313.1	379.094
321.1000	-75411.7	378.875
321.0000	-80294.4	378.798
320.9000	-84710.3	378.648
320.8000	-91396.5	378.494
320.7000	-96084.5	378.348
320.6000	-95328.8	378.199
320.5000	-93674.8	378.15
320.4000	-84017	377.987
320.3000	-66010.8	377.811
320.2000	-57579.1	377.645
320.1000	-58672.5	377.58
320.0000	-72389	377.414
319.9000	-80319.5	377.231
319.8000	-88021.7	377.043
319.7000	-79808.5	376.854
319.6000	-77336.6	376.633
319.5000	-90488.6	376.467
319.4000	-111102	376.279
319.3000	-119745	376.068
319.2000	-119383	375.961
319.1000	-117849	375.759
319.0000	-112906	375.542
318.9000	-121753	375.311
318.8000	-123162	375.182
318.7000	-125440	374.952
318.6000	-119057	374.718
318.5000	-121073	374.512
318.4000	-123834	374.306
318.3000	-111623	374.089
318.2000	-107525	373.925
318.1000	-105274	373.765
318.0000	-107990	373.587
317.9000	-112143	373.513
317.8000	-112781	373.383
317.7000	-102430	373.234
317.6000	-93633.4	373.052
317.5000	-93610.1	372.946
317.4000	-101728	372.762
317.3000	-110867	372.566
317.2000	-109314	372.37
317.1000	-109004	372.171
317.0000	-114657	371.915
316.9000	-119507	371.7
316.8000	-117257	371.505
316.7000	-113138	371.314
316.6000	-112206	371.121
316.5000	-93625.5	370.968
316.4000	-74169.3	370.804
316.3000	-53596.4	370.631
316.2000	-34766.1	370.461
316.1000	-17893.4	370.337
316.0000	-16973.5	370.206
315.9000	-22202.3	370.032
315.8000	-33829.5	369.916
315.7000	-51270.1	369.731
315.6000	-62794.6	369.567
315.5000	-75458.6	369.385
315.4000	-89404	369.271
315.3000	-97708.4	369.071
315.2000	-103193	368.864
315.1000	-101310	368.675
315.0000	-86088.1	368.498
314.9000	-77368.6	368.313
314.8000	-58188.5	368.161
314.7000	-51955.8	368.001
314.6000	-59072.9	367.839
314.5000	-63268.7	367.679
314.4000	-57587.4	367.563
314.3000	-61399.7	367.419
314.2000	-78339.2	367.271
314.1000	-84601.4	367.081
314.0000	-94932.7	366.915
313.9000	-105456	366.749
313.8000	-100138	366.592
313.7000	-89088.4	366.372
313.6000	-85644.2	366.172
313.5000	-77939.8	365.984
313.4000	-66136	365.804
313.3000	-61494	365.63
313.2000	-59169.6	365.487
313.1000	-55178.1	365.326
313.0000	-60341.1	365.166
312.9000	-64082.9	365.02
312.8000	-73972.1	364.913
312.7000	-81044.1	364.779
312.6000	-93120.7	364.647
312.5000	-100296	364.48
312.4000	-109232	364.327
312.3000	-121820	364.154
312.2000	-130078	363.983
312.1000	-138296	363.752
312.0000	-144291	363.535
311.9000	-148593	363.327
311.8000	-146761	363.077
311.7000	-144258	362.878
311.6000	-133726	362.678
311.5000	-124254	362.513
311.4000	-105692	362.307
311.3000	-94346.2	362.176
311.2000	-81794.8	362.053
311.1000	-73561.8	361.952
311.0000	-85461.7	361.832
310.9000	-92410.8	361.737
310.8000	-98498.9	361.633
310.7000	-102269	361.538
310.6000	-107602	361.413
310.5000	-114824	361.307
310.4000	-125020	361.2
310.3000	-131483	361.103
310.2000	-114933	361.018
310.1000	-102702	360.949
310.0000	-83570	360.87
309.9000	-73217.6	360.802
309.8000	-72963.7	360.736
309.7000	-73729.2	360.643
309.6000	-76217.9	360.569
309.5000	-70071.7	360.454
309.4000	-71979.2	360.358
309.3000	-73240.1	360.219
309.2000	-94863.6	360.1
309.1000	-107409	359.917
309.0000	-110350	359.762
308.9000	-111795	359.625
308.8000	-108413	359.5
308.7000	-110429	359.383
308.6000	-114009	359.281
308.5000	-112934	359.175
308.4000	-104191	359.058
308.3000	-106900	358.989
308.2000	-116007	358.885
308.1000	-116340	358.808
308.0000	-113221	358.703
307.9000	-116171	358.611
307.8000	-113193	358.471
307.7000	-120863	358.354
307.6000	-121514	358.224
307.5000	-116814	358.052
307.4000	-106432	357.922
307.3000	-108770	357.792
307.2000	-111834	357.69
307.1000	-110985	357.554
307.0000	-105516	357.461
306.9000	-96816.7	357.37
306.8000	-84257.1	357.315
306.7000	-72020.9	357.255
306.6000	-63407.5	357.172
306.5000	-60891.7	357.094
306.4000	-65725.1	356.968
306.3000	-65115.3	356.878
306.2000	-61577.3	356.754
306.1000	-59234.7	356.644
306.0000	-66001.4	356.491
305.9000	-77234.9	356.379
305.8000	-78537.3	356.296
305.7000	-75131.1	356.18
305.6000	-61140.8	356.103
305.5000	-55057.6	356.021
305.4000	-60186.5	355.969
305.3000	-72183	355.871
305.2000	-77812.8	355.803
305.1000	-81962.8	355.718
305.0000	-87992.1	355.591
304.9000	-91641.3	355.506
304.8000	-97536	355.393
304.7000	-106344	355.293
304.6000	-112517	355.157
304.5000	-108880	355.05
304.4000	-104081	354.964
304.3000	-90718.4	354.853
304.2000	-87279.5	354.79
304.1000	-92633	354.723
304.0000	-100822	354.683
303.9000	-105963	354.598
303.8000	-106707	354.514
303.7000	-106775	354.459
303.6000	-112837	354.348
303.5000	-125619	354.27
303.4000	-134912	354.174
303.3000	-128926	354.06
303.2000	-130226	353.947
303.1000	-124501	353.858
303.0000	-114158	353.811
302.9000	-114376	353.721
302.8000	-101473	353.65
302.7000	-92501.3	353.594
302.6000	-93216.7	353.507
302.5000	-101866	353.455
302.4000	-100512	353.393
302.3000	-93338.6	353.296
302.2000	-100821	353.197
302.1000	-104736	353.105
302.0000	-108964	353.046
301.9000	-116299	352.957
301.8000	-119152	352.881
301.7000	-115433	352.823
301.6000	-119843	352.734
301.5000	-126143	352.689
301.4000	-127603	352.638
301.3000	-127668	352.557
301.2000	-125187	352.483
301.1000	-127872	352.418
301.0000	-122382	352.386
300.9000	-119345	352.311
300.8000	-119038	352.232
300.7000	-127707	352.166
300.6000	-133479	352.081
300.5000	-126663	352.018
300.4000	-120654	351.972
300.3000	-120389	351.895
300.2000	-120546	351.822
300.1000	-122015	351.764
300.0000	-113283	351.701
299.9000	-103839	351.65
299.8000	-96427.5	351.601
299.7000	-99479.9	351.535
299.6000	-104195	351.474
299.5000	-108391	351.412
299.4000	-109765	351.36
299.3000	-113942	351.288
299.2000	-116233	351.228
299.1000	-117758	351.183
299.0000	-124144	351.111
298.9000	-125269	351.055
298.8000	-131212	351.013
298.7000	-135504	350.951
298.6000	-139018	350.9
298.5000	-141984	350.846
298.4000	-147197	350.781
298.3000	-147049	350.727
298.2000	-144811	350.667
298.1000	-138500	350.606
298.0000	-137739	350.55
297.9000	-139210	350.5
297.8000	-129683	350.434
297.7000	-122543	350.381
297.6000	-118934	350.341
297.5000	-115154	350.275
297.4000	-115015	350.227
297.3000	-116490	350.185
297.2000	-112796	350.117
297.1000	-105464	350.066
297.0000	-110176	350.011
296.9000	-116230	349.939
296.8000	-119185	349.883
296.7000	-116364	349.835
296.6000	-121152	349.799
296.5000	-121869	349.751
296.4000	-128096	349.71
296.3000	-138534	349.678
296.2000	-136360	349.636
296.1000	-132156	349.599
296.0000	-130587	349.572
295.9000	-124052	349.526
295.8000	-115167	349.461
295.7000	-105802	349.417
295.6000	-97512.1	349.372
295.5000	-80907.3	349.315
295.4000	-72937.1	349.246
295.3000	-66527.9	349.205
295.2000	-67125.2	349.147
295.1000	-63975.8	349.076
295.0000	-65037.2	349.038
294.9000	-70324.9	348.988
294.8000	-78324	348.918
294.7000	-86173.6	348.87
294.6000	-103862	348.825
294.5000	-112249	348.767
294.4000	-108432	348.727
294.3000	-110104	348.698
294.2000	-110182	348.645
294.1000	-109477	348.604
294.0000	-110007	348.577
293.9000	-116854	348.528
293.8000	-112593	348.498
293.7000	-111287	348.476
293.6000	-135025	348.416
293.5000	-150132	348.349
293.4000	-157989	348.317
293.3000	-161562	348.271
293.2000	-157114	348.218
293.1000	-149963	348.191
293.0000	-141787	348.144
292.9000	-146768	348.085
292.8000	-129719	348.063
292.7000	-119202	348.037
292.6000	-110543	347.995
292.5000	-111274	347.934
292.4000	-112470	347.899
292.3000	-114025	347.847
292.2000	-126870	347.791
292.1000	-122963	347.764
292.0000	-122449	347.718
291.9000	-120075	347.659
291.8000	-119527	347.607
291.7000	-127394	347.583
291.6000	-128955	347.536
291.5000	-139339	347.48
291.4000	-137648	347.451
291.3000	-137184	347.392
291.2000	-138666	347.318
291.1000	-136029	347.251
291.0000	-140684	347.197
290.9000	-136826	347.115
290.8000	-134385	347.009
290.7000	-131048	346.897
290.6000	-132065	346.771
290.5000	-128910	346.628
290.4000	-124816	346.482
290.3000	-120193	346.352
290.2000	-109664	346.203
290.1000	-104554	346.049
290.0000	-110273	345.912
289.9000	-108079	345.828
289.8000	-105792	345.757
289.7000	-100290	345.715
289.6000	-105745	345.707
289.5000	-117115	345.734
289.4000	-126126	345.788
289.3000	-130298	345.875
289.2000	-130899	345.978
289.1000	-130792	346.098
289.0000	-120958	346.208
288.9000	-120438	346.309
288.8000	-117628	346.398
288.7000	-116291	346.48
288.6000	-110733	346.537
288.5000	-114412	346.574
288.4000	-117918	346.594
288.3000	-118171	346.608
288.2000	-124644	346.601
288.1000	-128625	346.589
288.0000	-122498	346.57
287.9000	-115473	346.531
287.8000	-110815	346.504
287.7000	-115385	346.473
287.6000	-110863	346.452
287.5000	-102027	346.419
287.4000	-98722.5	346.4
287.3000	-103680	346.38
287.2000	-111930	346.358
287.1000	-118828	346.343
287.0000	-124689	346.305
286.9000	-128845	346.282
286.8000	-141148	346.263
286.7000	-147136	346.244
286.6000	-153452	346.214
286.5000	-156956	346.2
286.4000	-150711	346.193
286.3000	-144897	346.193
286.2000	-141915	346.195
286.1000	-144582	346.189
286.0000	-128125	346.197
285.9000	-111569	346.197
285.8000	-111918	346.194
285.7000	-105409	346.172
285.6000	-110770	346.148
285.5000	-116644	346.146
285.4000	-118699	346.141
285.3000	-123869	346.139
285.2000	-129951	346.109
285.1000	-135825	346.09
285.0000	-131667	346.098
284.9000	-129065	346.096
284.8000	-122818	346.098
284.7000	-111063	346.077
284.6000	-108236	346.06
284.5000	-105679	346.065
284.4000	-98880	346.074
284.3000	-101503	346.087
284.2000	-110893	346.064
284.1000	-106942	346.054
284.0000	-114456	346.033
283.9000	-128634	346.032
283.8000	-133960	346.041
283.7000	-134259	346.028
283.6000	-129322	346.017
283.5000	-133347	346.001
283.4000	-132309	345.992
283.3000	-129242	346.007
283.2000	-122071	346.026
283.1000	-114549	346.034
283.0000	-107475	346.02
282.9000	-109364	346.01
282.8000	-102137	346.004
282.7000	-97414.5	346.017
282.6000	-89707.6	346.036
282.5000	-93070.1	346.041
282.4000	-103186	346.036
282.3000	-110779	346.03
282.2000	-114998	346.031
282.1000	-120000	346.049
282.0000	-130289	346.063
281.9000	-140291	346.063
281.8000	-140129	346.057
281.7000	-127330	346.051
281.6000	-116979	346.046
281.5000	-102471	346.043
281.4000	-100430	346.06
281.3000	-95883.1	346.068
281.2000	-90371	346.07
281.1000	-83255.5	346.069
281.0000	-79436.5	346.06
280.9000	-88745	346.052
280.8000	-102703	346.042
280.7000	-109904	346.042
280.6000	-100160	346.05
280.5000	-98649.4	346.044
280.4000	-101234	346.032
280.3000	-104450	346.02
280.2000	-116154	346.009
280.1000	-122329	346.003
280.0000	-122767	345.997
279.9000	-120492	345.989
279.8000	-128243	345.962
279.7000	-122250	345.957
279.6000	-121713	345.956
279.5000	-126492	345.959
279.4000	-119777	345.964
279.3000	-114583	345.967
279.2000	-115225	345.969
279.1000	-118652	345.972
279.0000	-120387	345.974
278.9000	-128485	345.968
278.8000	-127391	345.981
278.7000	-114980	346.002
278.6000	-114197	346.02
278.5000	-120647	346.039
278.4000	-131622	346.053
278.3000	-131380	346.073
278.2000	-125754	346.098
278.1000	-123079	346.115
278.0000	-125959	346.114
277.9000	-134380	346.102
277.8000	-129032	346.094
277.7000	-129359	346.084
277.6000	-124687	346.1
277.5000	-127762	346.116
277.4000	-132300	346.134
277.3000	-139213	346.15
277.2000	-140417	346.165
277.1000	-136876	346.182
277.0000	-135560	346.203
276.9000	-126082	346.231
276.8000	-112010	346.244
276.7000	-102824	346.244
276.6000	-91389.4	346.245
276.5000	-81017.8	346.243
276.4000	-75634.6	346.244
276.3000	-68920.9	346.252
276.2000	-72184.3	346.254
276.1000	-76678.4	346.254
276.0000	-82869.7	346.274
275.9000	-84229.8	346.295
275.8000	-81512.1	346.32
275.7000	-81036.3	346.348
275.6000	-81956.3	346.381
275.5000	-93947.7	346.407
275.4000	-99322.3	346.438
275.3000	-98273.7	346.469
275.2000	-99170.8	346.486
