TITLE	Seo_0.6uM
DATA TYPE	
ORIGIN	JASCO
OWNER	
DATE	24/04/08
TIME	15:19:49
SPECTROMETER/DATA SYSTEM	
LOCALE	1033
RESOLUTION	
DELTAX	-0.1
XUNITS	NANOMETERS
YUNITS	Mol. Ellip.
Y2UNITS	HT [V]
FIRSTX	  350.0000
LASTX	  190.0000
NPOINTS	    1601
FIRSTY	-183030.31250
MAXY	129596.34375
MINY	-357932.15625
XYDATA
350.0000	-183030	500.53
349.9000	-124480	499.955
349.8000	-106549	499.084
349.7000	-142320	498.19
349.6000	-170313	497.544
349.5000	-132705	496.991
349.4000	-82559.5	496.11
349.3000	-53812.8	495.482
349.2000	-31543.1	494.956
349.1000	-22178.1	494.113
349.0000	7555.02	493.491
348.9000	52224.4	492.949
348.8000	85822.8	492.1
348.7000	87566.5	491.232
348.6000	48267.2	490.608
348.5000	29909.1	490.075
348.4000	962.372	489.192
348.3000	-18066.9	488.534
348.2000	-91933.5	487.943
348.1000	-80846.9	487.07
348.0000	-34058.9	486.418
347.9000	1688.86	485.844
347.8000	3335.45	484.973
347.7000	23782.9	484.094
347.6000	55982.7	483.469
347.5000	76328.4	482.955
347.4000	109229	482.152
347.3000	129596	481.558
347.2000	48727.6	481.034
347.1000	-34066.9	480.262
347.0000	-49428.6	479.718
346.9000	-82366.2	479.252
346.8000	-134624	478.496
346.7000	-220025	477.714
346.6000	-275859	477.136
346.5000	-341303	476.37
346.4000	-357932	475.595
346.3000	-317979	474.997
346.2000	-264473	474.206
346.1000	-240128	473.392
346.0000	-216998	472.79
345.9000	-195235	472.273
345.8000	-182428	471.472
345.7000	-146650	470.885
345.6000	-92682.9	470.39
345.5000	-89289.6	469.672
345.4000	-76954.6	469.161
345.3000	-79205.4	468.737
345.2000	-60842	468.048
345.1000	-48845.5	467.347
345.0000	-16079.8	466.844
344.9000	38456.9	466.194
344.8000	45197.6	465.51
344.7000	37795.6	464.975
344.6000	33260.8	464.287
344.5000	28032.3	463.575
344.4000	-4556.05	463.04
344.3000	-15261.8	462.337
344.2000	-21974.3	461.621
344.1000	-60713.1	461.073
344.0000	-84955.6	460.402
343.9000	-73941.7	459.738
343.8000	-94622.8	459.246
343.7000	-103641	458.828
343.6000	-89883.4	458.172
343.5000	-71098.8	457.712
343.4000	-51456	457.333
343.3000	-28909.4	456.717
343.2000	7474.48	456.261
343.1000	-8501.47	455.849
343.0000	7186.6	455.244
342.9000	-6662.11	454.614
342.8000	-15384.7	454.148
342.7000	-21558.2	453.531
342.6000	-19308.9	452.901
342.5000	-12465.5	452.435
342.4000	-27767.6	451.828
342.3000	-35017.2	451.213
342.2000	-53176.8	450.734
342.1000	-70951.1	450.139
342.0000	-65121.2	449.552
341.9000	-74692.4	449.136
341.8000	-81966.6	448.579
341.7000	-106760	448.016
341.6000	-128611	447.611
341.5000	-141622	447.11
341.4000	-130376	446.604
341.3000	-94287.7	446.23
341.2000	-103744	445.664
341.1000	-98075	445.081
341.0000	-133398	444.637
340.9000	-146114	444.056
340.8000	-129355	443.464
340.7000	-112731	442.994
340.6000	-118092	442.404
340.5000	-193512	441.795
340.4000	-231309	441.361
340.3000	-206329	440.823
340.2000	-191910	440.283
340.1000	-173470	439.899
340.0000	-201626	439.422
339.9000	-208293	438.952
339.8000	-221575	438.603
339.7000	-187770	438.167
339.6000	-137118	437.726
339.5000	-136857	437.413
339.4000	-119196	436.968
339.3000	-114991	436.494
339.2000	-77185.9	435.955
339.1000	-49674.8	435.456
339.0000	-40571	434.94
338.9000	-56173.5	434.362
338.8000	-92938.5	433.821
338.7000	-113467	433.28
338.6000	-130876	432.698
338.5000	-122685	432.192
338.4000	-126840	431.829
338.3000	-131433	431.388
338.2000	-129697	430.951
338.1000	-88661.3	430.643
338.0000	-29653.9	430.221
337.9000	15071.3	429.791
337.8000	32408.2	429.494
337.7000	21939.6	429.098
337.6000	-20034.7	428.675
337.5000	-50153.7	428.345
337.4000	-56032.1	427.923
337.3000	-47972.4	427.482
337.2000	-55477.3	426.992
337.1000	-52394.9	426.558
337.0000	-52746.5	426.119
336.9000	-49160	425.639
336.8000	-28641.5	425.222
336.7000	-10442.6	424.805
336.6000	-5379.69	424.353
336.5000	-10886.6	423.952
336.4000	-40530.9	423.673
336.3000	-62782.9	423.281
336.2000	-66613.4	422.881
336.1000	-79787.3	422.586
336.0000	-97546.7	422.199
335.9000	-85115.5	421.795
335.8000	-75278.9	421.34
335.7000	-61831.3	420.923
335.6000	-45626.1	420.499
335.5000	-31912	420.063
335.4000	-18054.8	419.683
335.3000	-2255.37	419.304
335.2000	26820.8	418.901
335.1000	31013.4	418.553
335.0000	25716.7	418.319
334.9000	13400	417.994
334.8000	11052.8	417.665
334.7000	3867.65	417.281
334.6000	-21674.9	416.941
334.5000	-37532	416.587
334.4000	-42088.9	416.191
334.3000	-41486.6	415.822
334.2000	-20457.6	415.44
334.1000	9438.29	415.013
334.0000	16958	414.624
333.9000	7937.33	414.339
333.8000	36833.4	413.993
333.7000	31756	413.634
333.6000	9212.8	413.238
333.5000	-10225.9	412.9
333.4000	-50371.4	412.561
333.3000	-98007.5	412.205
333.2000	-134407	411.902
333.1000	-150486	411.594
333.0000	-171438	411.271
332.9000	-186410	410.979
332.8000	-177175	410.633
332.7000	-175950	410.317
332.6000	-162131	409.992
332.5000	-130446	409.645
332.4000	-105252	409.339
332.3000	-84577.9	409.029
332.2000	-62890.2	408.667
332.1000	-37919.1	408.331
332.0000	-23830.8	407.995
331.9000	-20075.4	407.718
331.8000	-15742.3	407.441
331.7000	-20751.6	407.124
331.6000	-43894.4	406.829
331.5000	-62713.1	406.411
331.4000	-71237	406.078
331.3000	-92086.2	405.78
331.2000	-106997	405.442
331.1000	-103623	405.136
331.0000	-101394	404.821
330.9000	-125326	404.499
330.8000	-135031	404.22
330.7000	-130322	403.888
330.6000	-127365	403.597
330.5000	-128170	403.309
330.4000	-116590	403.037
330.3000	-122626	402.807
330.2000	-116818	402.429
330.1000	-88126.9	402.116
330.0000	-69739.1	401.824
329.9000	-78428.3	401.537
329.8000	-80461.6	401.296
329.7000	-72773.7	400.926
329.6000	-63176.3	400.605
329.5000	-39730.4	400.303
329.4000	-51724.7	400.01
329.3000	-65805.2	399.767
329.2000	-66922.5	399.398
329.1000	-55400.9	399.095
329.0000	-36034.8	398.826
328.9000	-24664.6	398.576
328.8000	-18523.6	398.374
328.7000	-24012.2	398.033
328.6000	-13401.7	397.752
328.5000	-1037.89	397.498
328.4000	-1723.17	397.265
328.3000	-13690.8	397.072
328.2000	-25650	396.736
328.1000	-34954.9	396.442
328.0000	-36905	396.168
327.9000	-52572.9	395.924
327.8000	-77600	395.733
327.7000	-76069.9	395.444
327.6000	-69104	395.205
327.5000	-53276.5	394.987
327.4000	-45358.2	394.734
327.3000	-59433.9	394.529
327.2000	-80193.9	394.222
327.1000	-79208.3	393.964
327.0000	-49241.1	393.722
326.9000	-46663.9	393.453
326.8000	-45803.9	393.213
326.7000	-58633.2	392.879
326.6000	-49412	392.633
326.5000	-26646.5	392.425
326.4000	-16967	392.184
326.3000	-10580.4	391.973
326.2000	-16126.5	391.68
326.1000	-22516.7	391.448
326.0000	-14267.3	391.16
325.9000	-5171.66	390.94
325.8000	-15727.2	390.75
325.7000	-42905.1	390.516
325.6000	-49947.1	390.356
325.5000	-35430.5	390.051
325.4000	-16975.9	389.796
325.3000	3474.65	389.565
325.2000	3020.27	389.343
325.1000	-3610.35	389.136
325.0000	-10852	388.806
324.9000	-11189	388.504
324.8000	-3494.21	388.176
324.7000	-72.5132	387.975
324.6000	-17907.7	387.837
324.5000	-40283.2	387.556
324.4000	-55424.6	387.312
324.3000	-67888	387.083
324.2000	-78018.1	386.936
324.1000	-96227.3	386.679
324.0000	-94822	386.449
323.9000	-105072	386.225
323.8000	-122594	386.002
323.7000	-122880	385.876
323.6000	-115183	385.59
323.5000	-110419	385.299
323.4000	-94507.8	385.01
323.3000	-78593.6	384.833
323.2000	-58320.7	384.706
323.1000	-47645.7	384.413
323.0000	-33539.1	384.112
322.9000	-24316.2	383.807
322.8000	-34403.8	383.645
322.7000	-37075.2	383.388
322.6000	-49569.1	383.117
322.5000	-56716	382.839
322.4000	-69060.4	382.555
322.3000	-101336	382.37
322.2000	-102605	382.091
322.1000	-95040.3	381.797
322.0000	-96734.7	381.494
321.9000	-103624	381.307
321.8000	-97541.9	380.992
321.7000	-104416	380.671
321.6000	-108779	380.352
321.5000	-96090.3	380.059
321.4000	-81021.6	379.891
321.3000	-96424.6	379.648
321.2000	-128481	379.411
321.1000	-131894	379.181
321.0000	-126287	379.105
320.9000	-109809	378.966
320.8000	-104378	378.823
320.7000	-99631.9	378.682
320.6000	-105332	378.537
320.5000	-122327	378.485
320.4000	-102294	378.336
320.3000	-84999.9	378.176
320.2000	-78697.3	378.018
320.1000	-90024.9	377.956
320.0000	-89750.1	377.775
319.9000	-77913.2	377.581
319.8000	-73107.4	377.397
319.7000	-53748.2	377.212
319.6000	-39240.3	376.968
319.5000	-47425.6	376.764
319.4000	-53664.3	376.552
319.3000	-58092.9	376.328
319.2000	-59077.9	376.215
319.1000	-64199.8	376.007
319.0000	-84973.8	375.769
318.9000	-100219	375.535
318.8000	-123481	375.415
318.7000	-129074	375.204
318.6000	-137690	374.986
318.5000	-136453	374.795
318.4000	-127653	374.607
318.3000	-111907	374.37
318.2000	-103328	374.188
318.1000	-93129.9	373.999
318.0000	-79600.6	373.816
317.9000	-81627.5	373.741
317.8000	-77155.3	373.581
317.7000	-86753.1	373.391
317.6000	-104478	373.192
317.5000	-127844	373.101
317.4000	-148524	372.915
317.3000	-159769	372.719
317.2000	-169417	372.537
317.1000	-166034	372.349
317.0000	-166294	372.111
316.9000	-158633	371.924
316.8000	-142997	371.76
316.7000	-138899	371.588
316.6000	-131222	371.394
316.5000	-135644	371.251
316.4000	-135452	371.089
316.3000	-128021	370.907
316.2000	-113435	370.706
316.1000	-115574	370.552
316.0000	-121829	370.385
315.9000	-125851	370.189
315.8000	-123928	370.085
315.7000	-109205	369.915
315.6000	-103388	369.743
315.5000	-107927	369.564
315.4000	-119981	369.47
315.3000	-116081	369.29
315.2000	-108670	369.101
315.1000	-106673	368.93
315.0000	-100263	368.759
314.9000	-106146	368.567
314.8000	-91001.5	368.412
314.7000	-77899.3	368.242
314.6000	-65781.8	368.064
314.5000	-62341.4	367.891
314.4000	-64923.4	367.766
314.3000	-58373.5	367.616
314.2000	-53786.7	367.461
314.1000	-45729	367.267
314.0000	-52136	367.104
313.9000	-67683.9	366.952
313.8000	-64654.2	366.807
313.7000	-75465	366.586
313.6000	-92446	366.388
313.5000	-87568.1	366.207
313.4000	-98919.3	366.025
313.3000	-105855	365.834
313.2000	-113774	365.68
313.1000	-113746	365.518
313.0000	-119967	365.35
312.9000	-125302	365.191
312.8000	-115942	365.082
312.7000	-111031	364.95
312.6000	-117175	364.81
312.5000	-105602	364.634
312.4000	-104096	364.477
312.3000	-100094	364.317
312.2000	-112512	364.15
312.1000	-108711	363.924
312.0000	-95842.8	363.72
311.9000	-103856	363.508
311.8000	-95745.3	363.243
311.7000	-83718.3	363.045
311.6000	-81803.3	362.861
311.5000	-84500.6	362.692
311.4000	-77736.7	362.462
311.3000	-77077.5	362.314
311.2000	-94869.9	362.189
311.1000	-95508.4	362.092
311.0000	-99146.3	361.974
310.9000	-96546.9	361.884
310.8000	-94436.8	361.795
310.7000	-110806	361.71
310.6000	-115249	361.581
310.5000	-117038	361.474
310.4000	-104056	361.378
310.3000	-114452	361.28
310.2000	-109720	361.184
310.1000	-120480	361.111
310.0000	-131735	361.031
309.9000	-124965	360.959
309.8000	-126060	360.885
309.7000	-126683	360.812
309.6000	-134015	360.75
309.5000	-134781	360.615
309.4000	-141278	360.51
309.3000	-144255	360.396
309.2000	-133194	360.298
309.1000	-113233	360.11
309.0000	-102831	359.962
308.9000	-87493.7	359.835
308.8000	-77390.7	359.712
308.7000	-66467.6	359.599
308.6000	-67501.4	359.507
308.5000	-63025.5	359.407
308.4000	-67431.8	359.257
308.3000	-91094.1	359.166
308.2000	-102972	359.08
308.1000	-101269	359.017
308.0000	-117835	358.886
307.9000	-125467	358.78
307.8000	-129219	358.659
307.7000	-119834	358.561
307.6000	-118073	358.429
307.5000	-116452	358.277
307.4000	-122009	358.146
307.3000	-135469	357.987
307.2000	-148381	357.872
307.1000	-157494	357.755
307.0000	-146421	357.668
306.9000	-143317	357.542
306.8000	-147739	357.467
306.7000	-145644	357.408
306.6000	-136678	357.306
306.5000	-114745	357.225
306.4000	-97151.8	357.123
306.3000	-83478.6	357.044
306.2000	-88684.7	356.897
306.1000	-88563.8	356.78
306.0000	-83506.9	356.641
305.9000	-84612.1	356.533
305.8000	-78640.2	356.446
305.7000	-74657.3	356.344
305.6000	-83100.8	356.264
305.5000	-86519.8	356.156
305.4000	-70573	356.1
305.3000	-77910.8	356.021
305.2000	-92603.3	355.966
305.1000	-101047	355.873
305.0000	-101944	355.756
304.9000	-114475	355.673
304.8000	-114803	355.544
304.7000	-101513	355.443
304.6000	-97189.3	355.318
304.5000	-82628.5	355.203
304.4000	-66391.3	355.103
304.3000	-52924.2	354.997
304.2000	-58189.3	354.935
304.1000	-59446.7	354.853
304.0000	-67017.9	354.807
303.9000	-72410.9	354.738
303.8000	-85368.6	354.65
303.7000	-91137.5	354.59
303.6000	-106309	354.488
303.5000	-123155	354.411
303.4000	-135461	354.301
303.3000	-142822	354.183
303.2000	-147606	354.076
303.1000	-159048	353.981
303.0000	-158525	353.929
302.9000	-163504	353.85
302.8000	-175999	353.768
302.7000	-169525	353.703
302.6000	-170806	353.626
302.5000	-158824	353.588
302.4000	-162071	353.524
302.3000	-155466	353.428
302.2000	-160497	353.334
302.1000	-168660	353.228
302.0000	-157816	353.163
301.9000	-158618	353.075
301.8000	-152552	352.994
301.7000	-148616	352.928
301.6000	-141752	352.844
301.5000	-129397	352.804
301.4000	-114383	352.752
301.3000	-103274	352.679
301.2000	-93191.1	352.622
301.1000	-86716.3	352.556
301.0000	-86065.1	352.52
300.9000	-96247.5	352.44
300.8000	-97922.4	352.357
300.7000	-107814	352.283
300.6000	-125414	352.196
300.5000	-136099	352.128
300.4000	-135267	352.073
300.3000	-131532	351.996
300.2000	-130089	351.923
300.1000	-130338	351.861
300.0000	-134218	351.791
299.9000	-144471	351.73
299.8000	-134233	351.673
299.7000	-137028	351.598
299.6000	-138725	351.53
299.5000	-151534	351.463
299.4000	-165194	351.409
299.3000	-161098	351.339
299.2000	-163452	351.282
299.1000	-163754	351.24
299.0000	-161569	351.173
298.9000	-162347	351.127
298.8000	-171374	351.089
298.7000	-168108	351.033
298.6000	-162335	350.982
298.5000	-165633	350.925
298.4000	-163849	350.862
298.3000	-165309	350.804
298.2000	-164711	350.739
298.1000	-169951	350.673
298.0000	-159474	350.613
297.9000	-150193	350.558
297.8000	-145337	350.484
297.7000	-142882	350.428
297.6000	-140232	350.384
297.5000	-136028	350.315
297.4000	-131996	350.269
297.3000	-124963	350.226
297.2000	-131994	350.154
297.1000	-154127	350.098
297.0000	-176591	350.042
296.9000	-184684	349.972
296.8000	-186784	349.919
296.7000	-178916	349.871
296.6000	-175626	349.835
296.5000	-189472	349.783
296.4000	-192272	349.743
296.3000	-161138	349.722
296.2000	-143613	349.684
296.1000	-137221	349.642
296.0000	-135944	349.607
295.9000	-145862	349.564
295.8000	-149897	349.494
295.7000	-148481	349.45
295.6000	-136827	349.407
295.5000	-140221	349.339
295.4000	-133065	349.268
295.3000	-129522	349.225
295.2000	-110281	349.174
295.1000	-91714.3	349.11
295.0000	-88784.1	349.075
294.9000	-83514.7	349.019
294.8000	-82626	348.955
294.7000	-92024.2	348.915
294.6000	-103076	348.873
294.5000	-101537	348.824
294.4000	-111288	348.786
294.3000	-124997	348.749
294.2000	-119757	348.695
294.1000	-120790	348.657
294.0000	-124786	348.628
293.9000	-131435	348.571
293.8000	-129940	348.537
293.7000	-147036	348.504
293.6000	-142410	348.445
293.5000	-144270	348.371
293.4000	-157939	348.325
293.3000	-167051	348.275
293.2000	-164005	348.22
293.1000	-154939	348.195
293.0000	-155058	348.149
292.9000	-152648	348.097
292.8000	-162414	348.074
292.7000	-171817	348.051
292.6000	-185244	348.015
292.5000	-186989	347.96
292.4000	-193208	347.925
292.3000	-196164	347.868
292.2000	-195872	347.812
292.1000	-208692	347.776
292.0000	-217695	347.724
291.9000	-218241	347.663
291.8000	-205111	347.613
291.7000	-194990	347.591
291.6000	-193962	347.546
291.5000	-200727	347.492
291.4000	-207318	347.462
291.3000	-199685	347.409
291.2000	-190814	347.336
291.1000	-186021	347.267
291.0000	-176815	347.218
290.9000	-171593	347.141
290.8000	-175617	347.039
290.7000	-170509	346.934
290.6000	-167145	346.815
290.5000	-171040	346.673
290.4000	-171417	346.525
290.3000	-167951	346.393
290.2000	-161171	346.24
290.1000	-158159	346.071
290.0000	-147042	345.927
289.9000	-147583	345.827
289.8000	-158376	345.738
289.7000	-157101	345.681
289.6000	-137451	345.669
289.5000	-137340	345.695
289.4000	-145883	345.743
289.3000	-153543	345.819
289.2000	-162321	345.918
289.1000	-159431	346.043
289.0000	-154840	346.154
288.9000	-144193	346.262
288.8000	-149470	346.351
288.7000	-140639	346.433
288.6000	-129764	346.497
288.5000	-131043	346.542
288.4000	-123394	346.573
288.3000	-136915	346.586
288.2000	-156851	346.574
288.1000	-150970	346.566
288.0000	-153672	346.548
287.9000	-157946	346.513
287.8000	-162961	346.489
287.7000	-153450	346.463
287.6000	-152379	346.442
287.5000	-130997	346.406
287.4000	-106120	346.388
287.3000	-91133.7	346.375
287.2000	-90463.9	346.355
287.1000	-94947.1	346.34
287.0000	-106039	346.298
286.9000	-123052	346.272
286.8000	-123897	346.259
286.7000	-124550	346.243
286.6000	-122443	346.225
286.5000	-117459	346.219
286.4000	-114969	346.213
286.3000	-115039	346.21
286.2000	-110176	346.207
286.1000	-102139	346.201
286.0000	-98982.7	346.205
285.9000	-104523	346.2
285.8000	-119003	346.2
285.7000	-131652	346.165
285.6000	-143084	346.14
285.5000	-147589	346.138
285.4000	-137390	346.136
285.3000	-146416	346.133
285.2000	-161032	346.097
285.1000	-175089	346.07
285.0000	-184459	346.068
284.9000	-186835	346.06
284.8000	-193581	346.057
284.7000	-205283	346.025
284.6000	-217298	346.001
284.5000	-228328	346
284.4000	-225507	346.004
284.3000	-218464	346.017
284.2000	-205426	346.002
284.1000	-209120	345.993
284.0000	-209018	345.978
283.9000	-201394	345.988
283.8000	-203240	346.003
283.7000	-197410	345.993
283.6000	-193553	345.983
283.5000	-191987	345.968
283.4000	-187991	345.959
283.3000	-181524	345.969
283.2000	-172938	345.985
283.1000	-161688	345.991
283.0000	-145887	345.983
282.9000	-148376	345.978
282.8000	-141628	345.973
282.7000	-139060	345.984
282.6000	-147244	345.999
282.5000	-156960	345.999
282.4000	-153989	345.994
282.3000	-150420	345.986
282.2000	-149240	345.981
282.1000	-145025	345.997
282.0000	-146842	346.01
281.9000	-158427	346.016
281.8000	-162907	346.013
281.7000	-155920	346.01
281.6000	-144163	346.01
281.5000	-149994	346.007
281.4000	-162087	346.023
281.3000	-168835	346.026
281.2000	-173699	346.022
281.1000	-168938	346.017
281.0000	-168912	346.013
280.9000	-163766	346.007
280.8000	-172463	345.996
280.7000	-180123	345.988
280.6000	-181068	345.988
280.5000	-177262	345.979
280.4000	-174108	345.97
280.3000	-170788	345.957
280.2000	-160943	345.943
280.1000	-152439	345.933
280.0000	-150567	345.925
279.9000	-146331	345.916
279.8000	-149953	345.893
279.7000	-144854	345.888
279.6000	-144664	345.884
279.5000	-143173	345.884
279.4000	-144601	345.885
279.3000	-142590	345.884
279.2000	-154092	345.882
279.1000	-158494	345.883
279.0000	-152339	345.888
278.9000	-140694	345.886
278.8000	-129658	345.899
278.7000	-134980	345.906
278.6000	-147388	345.918
278.5000	-157952	345.93
278.4000	-149531	345.947
278.3000	-133553	345.965
278.2000	-126564	345.986
278.1000	-131453	346
278.0000	-145562	345.998
277.9000	-134799	345.995
277.8000	-119148	345.994
277.7000	-105568	345.992
277.6000	-119746	346.003
277.5000	-134397	346.014
277.4000	-149495	346.027
277.3000	-160758	346.043
277.2000	-167473	346.062
277.1000	-186351	346.078
277.0000	-213258	346.093
276.9000	-220367	346.114
276.8000	-220143	346.124
276.7000	-213146	346.126
276.6000	-212048	346.126
276.5000	-205163	346.127
276.4000	-189542	346.127
276.3000	-162014	346.133
276.2000	-122883	346.141
276.1000	-114561	346.141
276.0000	-115674	346.155
275.9000	-119439	346.171
275.8000	-134721	346.186
275.7000	-145144	346.208
275.6000	-164637	346.232
275.5000	-182070	346.254
275.4000	-196020	346.28
275.3000	-198453	346.307
275.2000	-190942	346.322
275.1000	-195426	346.336
275.0000	-183681	346.353
274.9000	-167635	346.371
