TITLE	ACE2
DATA TYPE	
ORIGIN	JASCO
OWNER	
DATE	24/04/08
TIME	17:55:49
SPECTROMETER/DATA SYSTEM	
LOCALE	1033
RESOLUTION	
DELTAX	-0.1
XUNITS	NANOMETERS
YUNITS	CD [mdeg]
Y2UNITS	HT [V]
FIRSTX	  350.0000
LASTX	  190.0000
NPOINTS	    1601
FIRSTY	    -0.83512
MAXY	     6.35390
MINY	    -2.47106
XYDATA
350.0000	-0.835121	480.564
349.9000	-0.970551	479.961
349.8000	-1.01032	479.065
349.7000	-0.837849	478.168
349.6000	-0.564236	477.539
349.5000	-0.472902	476.989
349.4000	-0.525261	476.131
349.3000	-0.43496	475.522
349.2000	-0.181832	475.007
349.1000	-0.0813131	474.177
349.0000	-0.0538651	473.559
348.9000	-0.188594	473.011
348.8000	-0.335375	472.167
348.7000	-0.388793	471.312
348.6000	-0.563408	470.693
348.5000	-0.643412	470.163
348.4000	-0.915247	469.292
348.3000	-0.970742	468.648
348.2000	-0.936799	468.087
348.1000	-0.8691	467.247
348.0000	-0.995508	466.607
347.9000	-1.11123	466.044
347.8000	-0.700542	465.222
347.7000	-0.476694	464.379
347.6000	-0.303988	463.783
347.5000	-0.29615	463.285
347.4000	-0.458526	462.504
347.3000	-0.719025	461.913
347.2000	-0.785468	461.415
347.1000	-0.75875	460.668
347.0000	-0.861666	460.114
346.9000	-0.964009	459.637
346.8000	-0.994944	458.89
346.7000	-0.827386	458.137
346.6000	-0.617617	457.578
346.5000	-0.469819	456.827
346.4000	-0.225842	456.066
346.3000	-0.0826899	455.477
346.2000	-0.00409031	454.709
346.1000	0.190504	453.929
346.0000	0.345958	453.348
345.9000	0.508809	452.848
345.8000	0.511417	452.064
345.7000	0.43915	451.485
345.6000	0.174761	450.985
345.5000	0.0269576	450.279
345.4000	-0.106911	449.766
345.3000	-0.277121	449.33
345.2000	-0.404698	448.639
345.1000	-0.433006	447.94
345.0000	-0.574464	447.427
344.9000	-0.421041	446.787
344.8000	-0.0966239	446.138
344.7000	-0.0776242	445.622
344.6000	0.0204802	444.947
344.5000	0.209232	444.264
344.4000	0.33718	443.755
344.3000	0.350859	443.098
344.2000	0.448037	442.435
344.1000	0.633241	441.939
344.0000	0.564267	441.289
343.9000	0.591136	440.638
343.8000	0.699079	440.172
343.7000	0.633217	439.767
343.6000	0.466233	439.143
343.5000	0.12823	438.682
343.4000	-0.287487	438.284
343.3000	-0.671806	437.638
343.2000	-0.792639	437.164
343.1000	-0.822975	436.755
343.0000	-0.860582	436.173
342.9000	-0.940211	435.577
342.8000	-0.827416	435.134
342.7000	-0.725553	434.524
342.6000	-0.425064	433.915
342.5000	-0.253901	433.471
342.4000	-0.222628	432.924
342.3000	-0.196787	432.361
342.2000	-0.261653	431.918
342.1000	-0.301125	431.335
342.0000	-0.292843	430.751
341.9000	-0.268139	430.339
341.8000	-0.184458	429.799
341.7000	-0.1955	429.246
341.6000	-0.11954	428.834
341.5000	-0.215772	428.297
341.4000	-0.267568	427.755
341.3000	-0.179464	427.359
341.2000	-0.083509	426.814
341.1000	-0.0507723	426.26
341.0000	-0.0664039	425.849
340.9000	-0.14756	425.31
340.8000	-0.139446	424.761
340.7000	-0.0682722	424.344
340.6000	0.0963188	423.827
340.5000	0.0577776	423.299
340.4000	0.0807965	422.916
340.3000	0.0181352	422.393
340.2000	-0.111403	421.855
340.1000	-0.0400709	421.467
340.0000	0.0716656	420.99
339.9000	0.119487	420.503
339.8000	0.0434907	420.129
339.7000	0.0834692	419.65
339.6000	0.116292	419.166
339.5000	-0.0109929	418.825
339.4000	-0.0368682	418.375
339.3000	-0.100352	417.903
339.2000	-0.123442	417.394
339.1000	-0.170849	416.937
339.0000	-0.108647	416.468
338.9000	-0.208013	415.935
338.8000	-0.336271	415.445
338.7000	-0.367646	414.95
338.6000	-0.313138	414.416
338.5000	-0.107311	413.955
338.4000	-0.125094	413.602
338.3000	-0.118272	413.155
338.2000	-0.295603	412.697
338.1000	-0.303174	412.372
338.0000	-0.172119	411.955
337.9000	-0.279493	411.526
337.8000	-0.257636	411.227
337.7000	-0.350445	410.831
337.6000	-0.354786	410.422
337.5000	-0.460595	410.111
337.4000	-0.431202	409.722
337.3000	-0.482985	409.318
337.2000	-0.523467	408.863
337.1000	-0.47787	408.456
337.0000	-0.434436	408.035
336.9000	-0.456939	407.582
336.8000	-0.447056	407.181
336.7000	-0.431672	406.779
336.6000	-0.364368	406.332
336.5000	-0.299805	405.921
336.4000	-0.229378	405.629
336.3000	-0.201788	405.225
336.2000	-0.141999	404.817
336.1000	-0.012502	404.511
336.0000	-0.0309219	404.143
335.9000	-0.0366831	403.762
335.8000	0.0012965	403.338
335.7000	0.0220113	402.959
335.6000	0.0634272	402.575
335.5000	0.0706889	402.177
335.4000	0.0264022	401.836
335.3000	0.107254	401.495
335.2000	0.0422164	401.116
335.1000	0.0826822	400.774
335.0000	0.0814783	400.544
334.9000	0.0924214	400.225
334.8000	0.123634	399.891
334.7000	0.098536	399.524
334.6000	0.0798699	399.202
334.5000	0.112555	398.873
334.4000	0.13159	398.486
334.3000	0.173863	398.131
334.2000	0.0624047	397.762
334.1000	-0.0649966	397.355
334.0000	-0.17739	396.998
333.9000	-0.256595	396.739
333.8000	-0.183103	396.415
333.7000	-0.25259	396.077
333.6000	-0.311649	395.704
333.5000	-0.400506	395.379
333.4000	-0.384479	395.053
333.3000	-0.352233	394.708
333.2000	-0.24303	394.411
333.1000	-0.14605	394.103
333.0000	-0.209166	393.767
332.9000	-0.223832	393.466
332.8000	-0.203244	393.128
332.7000	-0.102432	392.836
332.6000	-0.133117	392.532
332.5000	-0.194005	392.198
332.4000	-0.203281	391.909
332.3000	-0.365703	391.611
332.2000	-0.394136	391.276
332.1000	-0.343783	390.968
332.0000	-0.400107	390.633
331.9000	-0.575088	390.343
331.8000	-0.69604	390.052
331.7000	-0.747653	389.727
331.6000	-0.809571	389.43
331.5000	-0.729915	389.019
331.4000	-0.65813	388.693
331.3000	-0.580017	388.407
331.2000	-0.582145	388.091
331.1000	-0.511412	387.816
331.0000	-0.409204	387.536
330.9000	-0.255432	387.248
330.8000	-0.106168	386.997
330.7000	-0.0317207	386.714
330.6000	-0.0387942	386.468
330.5000	-0.148821	386.213
330.4000	-0.177733	385.927
330.3000	-0.260492	385.671
330.2000	-0.326578	385.31
330.1000	-0.323532	385.016
330.0000	-0.402682	384.749
329.9000	-0.503306	384.454
329.8000	-0.621549	384.188
329.7000	-0.647786	383.845
329.6000	-0.604294	383.587
329.5000	-0.529076	383.369
329.4000	-0.48528	383.087
329.3000	-0.395704	382.837
329.2000	-0.383249	382.487
329.1000	-0.371532	382.216
329.0000	-0.387948	381.977
328.9000	-0.518984	381.693
328.8000	-0.690281	381.427
328.7000	-0.827593	381.082
328.6000	-0.855333	380.835
328.5000	-0.887041	380.634
328.4000	-0.900354	380.371
328.3000	-0.861616	380.134
328.2000	-0.853344	379.848
328.1000	-0.641704	379.643
328.0000	-0.46669	379.469
327.9000	-0.334823	379.216
327.8000	-0.253336	378.983
327.7000	-0.212696	378.718
327.6000	-0.153767	378.55
327.5000	-0.0659365	378.427
327.4000	0.120978	378.168
327.3000	0.11367	377.905
327.2000	0.135009	377.594
327.1000	0.124936	377.377
327.0000	0.153496	377.208
326.9000	0.0773282	376.936
326.8000	-0.0154763	376.657
326.7000	-0.123617	376.341
326.6000	-0.249409	376.152
326.5000	-0.341234	376.025
326.4000	-0.340948	375.779
326.3000	-0.288228	375.538
326.2000	-0.376721	375.275
326.1000	-0.386943	375.101
326.0000	-0.254982	374.807
325.9000	-0.265796	374.527
325.8000	-0.272982	374.253
325.7000	-0.331714	373.992
325.6000	-0.406793	373.841
325.5000	-0.546738	373.542
325.4000	-0.623169	373.247
325.3000	-0.698221	372.949
325.2000	-0.763273	372.78
325.1000	-0.693911	372.679
325.0000	-0.629669	372.414
324.9000	-0.495773	372.137
324.8000	-0.386831	371.846
324.7000	-0.351567	371.702
324.6000	-0.408745	371.63
324.5000	-0.401304	371.378
324.4000	-0.338087	371.113
324.3000	-0.376529	370.855
324.2000	-0.400675	370.712
324.1000	-0.486004	370.439
324.0000	-0.473295	370.161
323.9000	-0.517935	369.873
323.8000	-0.450426	369.616
323.7000	-0.287955	369.492
323.6000	-0.270724	369.23
323.5000	-0.223811	368.948
323.4000	-0.247304	368.67
323.3000	-0.285792	368.53
323.2000	-0.360049	368.453
323.1000	-0.32839	368.215
323.0000	-0.22808	367.953
322.9000	-0.214413	367.678
322.8000	-0.259443	367.538
322.7000	-0.244538	367.296
322.6000	-0.198084	367.029
322.5000	-0.18696	366.749
322.4000	-0.14299	366.469
322.3000	-0.0793131	366.294
322.2000	-0.0819259	365.994
322.1000	-0.0673889	365.676
322.0000	-0.10056	365.363
321.9000	-0.133918	365.175
321.8000	-0.176782	364.893
321.7000	-0.207899	364.603
321.6000	-0.227695	364.309
321.5000	-0.329377	364.03
321.4000	-0.378518	363.891
321.3000	-0.501065	363.691
321.2000	-0.554821	363.488
321.1000	-0.613236	363.277
321.0000	-0.743998	363.19
320.9000	-0.773215	363.037
320.8000	-0.704178	362.89
320.7000	-0.708018	362.747
320.6000	-0.728228	362.605
320.5000	-0.674234	362.56
320.4000	-0.526024	362.402
320.3000	-0.446689	362.237
320.2000	-0.330766	362.08
320.1000	-0.184634	362.024
320.0000	-0.145711	361.869
319.9000	-0.155725	361.7
319.8000	-0.119442	361.513
319.7000	-0.0869591	361.315
319.6000	-0.179141	361.1
319.5000	-0.348073	360.935
319.4000	-0.46951	360.758
319.3000	-0.569361	360.547
319.2000	-0.670013	360.43
319.1000	-0.755236	360.229
319.0000	-0.774081	360.026
318.9000	-0.89051	359.816
318.8000	-0.943098	359.691
318.7000	-0.870094	359.468
318.6000	-0.706167	359.245
318.5000	-0.621658	359.045
318.4000	-0.594808	358.848
318.3000	-0.59749	358.627
318.2000	-0.656782	358.454
318.1000	-0.599949	358.286
318.0000	-0.550546	358.105
317.9000	-0.535949	358.029
317.8000	-0.52689	357.908
317.7000	-0.521975	357.772
317.6000	-0.547638	357.594
317.5000	-0.526516	357.499
317.4000	-0.467061	357.346
317.3000	-0.474248	357.185
317.2000	-0.47031	357.005
317.1000	-0.480816	356.821
317.0000	-0.465402	356.585
316.9000	-0.407633	356.383
316.8000	-0.36254	356.194
316.7000	-0.359682	356.004
316.6000	-0.43561	355.81
316.5000	-0.43828	355.644
316.4000	-0.404838	355.471
316.3000	-0.427505	355.301
316.2000	-0.400218	355.137
316.1000	-0.387418	355.014
316.0000	-0.439139	354.899
315.9000	-0.458447	354.749
315.8000	-0.379481	354.652
315.7000	-0.320041	354.491
315.6000	-0.39325	354.347
315.5000	-0.395036	354.175
315.4000	-0.400456	354.063
315.3000	-0.540562	353.865
315.2000	-0.569193	353.658
315.1000	-0.545668	353.468
315.0000	-0.556024	353.287
314.9000	-0.544601	353.106
314.8000	-0.48532	352.953
314.7000	-0.453419	352.793
314.6000	-0.483696	352.635
314.5000	-0.442181	352.491
314.4000	-0.415943	352.385
314.3000	-0.472333	352.251
314.2000	-0.491907	352.117
314.1000	-0.506077	351.944
314.0000	-0.574162	351.786
313.9000	-0.624509	351.619
313.8000	-0.641293	351.464
313.7000	-0.631611	351.251
313.6000	-0.633274	351.052
313.5000	-0.649127	350.863
313.4000	-0.632991	350.686
313.3000	-0.675651	350.515
313.2000	-0.691009	350.375
313.1000	-0.666914	350.23
313.0000	-0.610882	350.088
312.9000	-0.495006	349.96
312.8000	-0.439292	349.869
312.7000	-0.435635	349.742
312.6000	-0.478745	349.618
312.5000	-0.426736	349.459
312.4000	-0.419347	349.311
312.3000	-0.503746	349.141
312.2000	-0.607115	348.972
312.1000	-0.67737	348.752
312.0000	-0.73834	348.546
311.9000	-0.743881	348.347
311.8000	-0.730725	348.117
311.7000	-0.785808	347.933
311.6000	-0.785342	347.737
311.5000	-0.670288	347.575
311.4000	-0.570952	347.378
311.3000	-0.534465	347.247
311.2000	-0.525823	347.115
311.1000	-0.556867	347.006
311.0000	-0.504391	346.889
310.9000	-0.427572	346.79
310.8000	-0.350662	346.68
310.7000	-0.26473	346.589
310.6000	-0.251666	346.466
310.5000	-0.277217	346.363
310.4000	-0.332069	346.264
310.3000	-0.232443	346.178
310.2000	-0.255623	346.094
310.1000	-0.357485	346.024
310.0000	-0.381702	345.947
309.9000	-0.390316	345.882
309.8000	-0.409029	345.82
309.7000	-0.394527	345.723
309.6000	-0.397842	345.644
309.5000	-0.480332	345.528
309.4000	-0.429915	345.435
309.3000	-0.360718	345.297
309.2000	-0.380974	345.184
309.1000	-0.441852	345.018
309.0000	-0.501462	344.879
308.9000	-0.438172	344.76
308.8000	-0.358924	344.65
308.7000	-0.277123	344.549
308.6000	-0.290236	344.458
308.5000	-0.331931	344.356
308.4000	-0.273161	344.25
308.3000	-0.244418	344.187
308.2000	-0.222665	344.083
308.1000	-0.232697	343.999
308.0000	-0.26476	343.899
307.9000	-0.317494	343.815
307.8000	-0.312019	343.681
307.7000	-0.347851	343.574
307.6000	-0.350384	343.46
307.5000	-0.330058	343.301
307.4000	-0.241923	343.187
307.3000	-0.184383	343.079
307.2000	-0.166155	342.991
307.1000	-0.165274	342.859
307.0000	-0.151555	342.763
306.9000	-0.15963	342.671
306.8000	-0.154263	342.61
306.7000	-0.198373	342.538
306.6000	-0.351802	342.442
306.5000	-0.516146	342.358
306.4000	-0.688985	342.228
306.3000	-0.742936	342.138
306.2000	-0.766696	342.025
306.1000	-0.809851	341.924
306.0000	-0.794685	341.782
305.9000	-0.792201	341.678
305.8000	-0.780174	341.6
305.7000	-0.711493	341.486
305.6000	-0.616513	341.407
305.5000	-0.570706	341.324
305.4000	-0.522464	341.274
305.3000	-0.480159	341.181
305.2000	-0.461029	341.118
305.1000	-0.506171	341.035
305.0000	-0.554646	340.918
304.9000	-0.601998	340.839
304.8000	-0.63478	340.739
304.7000	-0.589019	340.656
304.6000	-0.620009	340.533
304.5000	-0.649218	340.428
304.4000	-0.721237	340.338
304.3000	-0.790624	340.223
304.2000	-0.818821	340.156
304.1000	-0.81989	340.091
304.0000	-0.815676	340.054
303.9000	-0.86378	339.966
303.8000	-0.924705	339.882
303.7000	-0.951761	339.832
303.6000	-0.974562	339.731
303.5000	-0.931715	339.663
303.4000	-0.92118	339.579
303.3000	-0.928449	339.465
303.2000	-0.91356	339.357
303.1000	-0.887267	339.268
303.0000	-0.895429	339.214
302.9000	-0.901789	339.12
302.8000	-0.88666	339.042
302.7000	-0.862949	338.983
302.6000	-0.782677	338.898
302.5000	-0.617278	338.855
302.4000	-0.553277	338.8
302.3000	-0.54591	338.707
302.2000	-0.513455	338.622
302.1000	-0.482646	338.537
302.0000	-0.471928	338.482
301.9000	-0.430459	338.4
301.8000	-0.418698	338.327
301.7000	-0.500293	338.266
301.6000	-0.619347	338.175
301.5000	-0.675999	338.125
301.4000	-0.669269	338.073
301.3000	-0.666281	337.995
301.2000	-0.665838	337.926
301.1000	-0.71093	337.862
301.0000	-0.753397	337.831
300.9000	-0.760712	337.759
300.8000	-0.730567	337.684
300.7000	-0.673683	337.625
300.6000	-0.695809	337.549
300.5000	-0.700596	337.487
300.4000	-0.678536	337.439
300.3000	-0.676306	337.366
300.2000	-0.702471	337.293
300.1000	-0.734095	337.233
300.0000	-0.776328	337.169
299.9000	-0.809776	337.117
299.8000	-0.850379	337.064
299.7000	-0.887447	336.998
299.6000	-0.926182	336.944
299.5000	-0.904315	336.887
299.4000	-0.831816	336.843
299.3000	-0.851071	336.778
299.2000	-0.792701	336.732
299.1000	-0.769798	336.693
299.0000	-0.698135	336.634
298.9000	-0.670223	336.586
298.8000	-0.616535	336.55
298.7000	-0.547122	336.496
298.6000	-0.569111	336.444
298.5000	-0.56081	336.393
298.4000	-0.598635	336.329
298.3000	-0.563667	336.269
298.2000	-0.537828	336.21
298.1000	-0.523746	336.149
298.0000	-0.523279	336.095
297.9000	-0.595792	336.041
297.8000	-0.640258	335.973
297.7000	-0.57292	335.926
297.6000	-0.508159	335.891
297.5000	-0.551187	335.831
297.4000	-0.649199	335.785
297.3000	-0.699973	335.744
297.2000	-0.74205	335.677
297.1000	-0.774109	335.626
297.0000	-0.766711	335.579
296.9000	-0.758866	335.508
296.8000	-0.79595	335.448
296.7000	-0.793756	335.402
296.6000	-0.739236	335.369
296.5000	-0.725529	335.324
296.4000	-0.741081	335.288
296.3000	-0.729676	335.262
296.2000	-0.742774	335.224
296.1000	-0.787825	335.188
296.0000	-0.909926	335.158
295.9000	-0.975084	335.113
295.8000	-0.980057	335.05
295.7000	-0.964293	335.008
295.6000	-0.913592	334.966
295.5000	-0.894301	334.903
295.4000	-0.874776	334.834
295.3000	-0.874491	334.791
295.2000	-0.846647	334.737
295.1000	-0.808466	334.673
295.0000	-0.762051	334.641
294.9000	-0.806756	334.591
294.8000	-0.812325	334.524
294.7000	-0.760676	334.486
294.6000	-0.745619	334.451
294.5000	-0.726044	334.398
294.4000	-0.67479	334.361
294.3000	-0.639613	334.331
294.2000	-0.571815	334.283
294.1000	-0.484378	334.248
294.0000	-0.475944	334.226
293.9000	-0.52738	334.179
293.8000	-0.554771	334.148
293.7000	-0.570291	334.127
293.6000	-0.530879	334.083
293.5000	-0.488727	334.026
293.4000	-0.524423	333.999
293.3000	-0.595158	333.952
293.2000	-0.589783	333.898
293.1000	-0.505597	333.879
293.0000	-0.517822	333.834
292.9000	-0.518638	333.784
292.8000	-0.535389	333.764
292.7000	-0.562204	333.738
292.6000	-0.601781	333.698
292.5000	-0.628361	333.647
292.4000	-0.685911	333.619
292.3000	-0.750659	333.574
292.2000	-0.723919	333.527
292.1000	-0.650215	333.504
292.0000	-0.686148	333.459
291.9000	-0.665266	333.406
291.8000	-0.665531	333.357
291.7000	-0.686148	333.332
291.6000	-0.75508	333.283
291.5000	-0.758113	333.232
291.4000	-0.802055	333.206
291.3000	-0.868386	333.152
291.2000	-0.885957	333.087
291.1000	-0.894098	333.025
291.0000	-0.919161	332.979
290.9000	-0.875609	332.912
290.8000	-0.786647	332.828
290.7000	-0.754399	332.732
290.6000	-0.783934	332.624
290.5000	-0.852085	332.493
290.4000	-0.869226	332.359
290.3000	-0.871649	332.24
290.2000	-0.874817	332.097
290.1000	-0.866123	331.946
290.0000	-0.875427	331.807
289.9000	-0.918188	331.704
289.8000	-0.924061	331.614
289.7000	-0.796002	331.549
289.6000	-0.686429	331.521
289.5000	-0.645176	331.532
289.4000	-0.587747	331.57
289.3000	-0.497233	331.641
289.2000	-0.492994	331.729
289.1000	-0.448631	331.842
289.0000	-0.333349	331.95
288.9000	-0.294344	332.055
288.8000	-0.305558	332.151
288.7000	-0.289829	332.239
288.6000	-0.321618	332.299
288.5000	-0.378098	332.342
288.4000	-0.38945	332.371
288.3000	-0.43412	332.387
288.2000	-0.507772	332.382
288.1000	-0.606644	332.371
288.0000	-0.629827	332.35
287.9000	-0.669779	332.312
287.8000	-0.680858	332.29
287.7000	-0.723212	332.262
287.6000	-0.731906	332.239
287.5000	-0.684674	332.208
287.4000	-0.657785	332.191
287.3000	-0.634987	332.178
287.2000	-0.621857	332.161
287.1000	-0.618825	332.149
287.0000	-0.642062	332.11
286.9000	-0.62486	332.09
286.8000	-0.585096	332.077
286.7000	-0.610549	332.062
286.6000	-0.67287	332.036
286.5000	-0.723891	332.02
286.4000	-0.734587	332.013
286.3000	-0.783963	332.005
286.2000	-0.778676	331.999
286.1000	-0.757823	331.99
286.0000	-0.751707	331.994
285.9000	-0.740294	331.987
285.8000	-0.695344	331.985
285.7000	-0.71274	331.961
285.6000	-0.713463	331.939
285.5000	-0.712583	331.939
285.4000	-0.662355	331.943
285.3000	-0.615799	331.949
285.2000	-0.621946	331.922
285.1000	-0.671204	331.904
285.0000	-0.716889	331.909
284.9000	-0.693845	331.906
284.8000	-0.650223	331.908
284.7000	-0.610368	331.885
284.6000	-0.627519	331.868
284.5000	-0.671002	331.87
284.4000	-0.724499	331.872
284.3000	-0.779827	331.879
284.2000	-0.768034	331.86
284.1000	-0.808241	331.85
284.0000	-0.865754	331.83
283.9000	-0.89564	331.833
283.8000	-0.925214	331.843
283.7000	-0.908288	331.828
283.6000	-0.876732	331.82
283.5000	-0.803242	331.815
283.4000	-0.772211	331.813
283.3000	-0.677565	331.83
283.2000	-0.618226	331.849
283.1000	-0.575807	331.856
283.0000	-0.561815	331.844
282.9000	-0.607464	331.836
282.8000	-0.633474	331.827
282.7000	-0.658491	331.836
282.6000	-0.650894	331.847
282.5000	-0.684668	331.848
282.4000	-0.727697	331.841
282.3000	-0.706398	331.836
282.2000	-0.711284	331.837
282.1000	-0.720889	331.86
282.0000	-0.654535	331.884
281.9000	-0.664364	331.889
281.8000	-0.695919	331.886
281.7000	-0.708978	331.88
281.6000	-0.718851	331.879
281.5000	-0.69175	331.88
281.4000	-0.643706	331.902
281.3000	-0.617455	331.907
281.2000	-0.596038	331.905
281.1000	-0.539308	331.905
281.0000	-0.522914	331.901
280.9000	-0.527111	331.897
280.8000	-0.506976	331.89
280.7000	-0.502019	331.887
280.6000	-0.539258	331.886
280.5000	-0.551827	331.878
280.4000	-0.548426	331.872
280.3000	-0.56395	331.861
280.2000	-0.584116	331.851
280.1000	-0.587334	331.841
280.0000	-0.594876	331.833
279.9000	-0.616606	331.824
279.8000	-0.627542	331.801
279.7000	-0.616068	331.793
279.6000	-0.601831	331.786
279.5000	-0.630529	331.784
279.4000	-0.584816	331.786
