TITLE	ACE2_D2_0.3uM
DATA TYPE	
ORIGIN	JASCO
OWNER	
DATE	24/02/26
TIME	15:54:21
SPECTROMETER/DATA SYSTEM	
LOCALE	1033
RESOLUTION	
DELTAX	-0.1
XUNITS	NANOMETERS
YUNITS	Mol. Ellip.
Y2UNITS	HT [V]
FIRSTX	  350.0000
LASTX	  190.0000
NPOINTS	    1601
FIRSTY	4247067.00000
MAXY	63669052.00000
MINY	-11959089.00000
XYDATA
350.0000	4.24707E+006	468.563
349.9000	3.52758E+006	467.987
349.8000	3.52409E+006	467.142
349.7000	4.61447E+006	466.297
349.6000	4.59887E+006	465.667
349.5000	1.90745E+006	465.088
349.4000	-580753	464.199
349.3000	-1.99292E+006	463.578
349.2000	-3.03487E+006	463.051
349.1000	-3.58683E+006	462.234
349.0000	-3.00215E+006	461.628
348.9000	-3.14287E+006	461.082
348.8000	-4.13123E+006	460.23
348.7000	-3.78334E+006	459.372
348.6000	-2.71277E+006	458.757
348.5000	-2.51311E+006	458.22
348.4000	-1.86001E+006	457.365
348.3000	-1.04418E+006	456.728
348.2000	-1.55751E+006	456.155
348.1000	-2.6902E+006	455.312
348.0000	-3.14698E+006	454.694
347.9000	-2.35104E+006	454.169
347.8000	-2.63971E+006	453.375
347.7000	-2.24431E+006	452.576
347.6000	-1.84605E+006	452.017
347.5000	-1.78363E+006	451.544
347.4000	-1.01454E+006	450.781
347.3000	181698	450.205
347.2000	251672	449.693
347.1000	741303	448.937
347.0000	1.83961E+006	448.377
346.9000	1.59878E+006	447.88
346.8000	1.26407E+006	447.1
346.7000	1.28368E+006	446.318
346.6000	340461	445.732
346.5000	-473273	445.008
346.4000	-798564	444.282
346.3000	-2.06773E+006	443.724
346.2000	-2.94083E+006	442.98
346.1000	-3.34896E+006	442.223
346.0000	-2.43086E+006	441.685
345.9000	-2.79301E+006	441.218
345.8000	-2.82979E+006	440.483
345.7000	-3.54849E+006	439.928
345.6000	-3.61213E+006	439.447
345.5000	-3.1378E+006	438.75
345.4000	-2.39923E+006	438.241
345.3000	-2.31415E+006	437.808
345.2000	-2.59886E+006	437.122
345.1000	-2.69402E+006	436.424
345.0000	-2.447E+006	435.917
344.9000	-1.94921E+006	435.245
344.8000	-1.04836E+006	434.558
344.7000	-227603	434.018
344.6000	296485	433.343
344.5000	406121	432.66
344.4000	324741	432.152
344.3000	558892	431.497
344.2000	1.00695E+006	430.836
344.1000	1.37339E+006	430.349
344.0000	1.70993E+006	429.728
343.9000	1.84061E+006	429.099
343.8000	1.64771E+006	428.63
343.7000	1.74678E+006	428.219
343.6000	2.0458E+006	427.596
343.5000	2.13314E+006	427.143
343.4000	1.66215E+006	426.754
343.3000	1.04951E+006	426.125
343.2000	105804	425.661
343.1000	-1.08301E+006	425.257
343.0000	-1.85864E+006	424.681
342.9000	-2.23241E+006	424.099
342.8000	-2.38068E+006	423.663
342.7000	-2.55632E+006	423.067
342.6000	-3.00066E+006	422.458
342.5000	-3.05038E+006	422.023
342.4000	-2.03605E+006	421.484
342.3000	-489014	420.941
342.2000	267073	420.518
342.1000	-17907	419.957
342.0000	-330631	419.393
341.9000	-691281	418.989
341.8000	-68101.7	418.469
341.7000	709568	417.939
341.6000	786479	417.536
341.5000	232839	416.986
341.4000	-84835.5	416.424
341.3000	237186	416.002
341.2000	-112101	415.46
341.1000	272644	414.914
341.0000	-324544	414.506
340.9000	-550717	413.966
340.8000	-422312	413.421
340.7000	-164202	413.018
340.6000	294379	412.523
340.5000	37170.4	412.013
340.4000	708042	411.634
340.3000	1.25139E+006	411.121
340.2000	1.7805E+006	410.593
340.1000	2.53031E+006	410.207
340.0000	2.30166E+006	409.713
339.9000	2.04211E+006	409.209
339.8000	1.4489E+006	408.82
339.7000	1.35142E+006	408.334
339.6000	1.11434E+006	407.837
339.5000	575992	407.469
339.4000	113810	406.996
339.3000	-853360	406.507
339.2000	-1.43271E+006	405.979
339.1000	-1.44511E+006	405.513
339.0000	-1.69227E+006	405.038
338.9000	-1.68584E+006	404.518
338.8000	-1.83332E+006	404.051
338.7000	-2.09672E+006	403.581
338.6000	-1.90949E+006	403.072
338.5000	-821045	402.626
338.4000	217536	402.296
338.3000	330766	401.884
338.2000	467590	401.467
338.1000	886726	401.169
338.0000	1.1695E+006	400.758
337.9000	1.3819E+006	400.34
337.8000	1.44711E+006	400.045
337.7000	1.10569E+006	399.646
337.6000	566976	399.239
337.5000	171597	398.933
337.4000	41588.7	398.527
337.3000	-437625	398.107
337.2000	-548628	397.652
337.1000	-479658	397.246
337.0000	-923153	396.827
336.9000	-1.17066E+006	396.39
336.8000	-1.20785E+006	396.005
336.7000	-1.3294E+006	395.614
336.6000	-1.54788E+006	395.181
336.5000	-1.50705E+006	394.795
336.4000	-1.59367E+006	394.521
336.3000	-2.18749E+006	394.158
336.2000	-2.61146E+006	393.795
336.1000	-2.47047E+006	393.529
336.0000	-3.00865E+006	393.173
335.9000	-3.03915E+006	392.8
335.8000	-2.71434E+006	392.386
335.7000	-2.43077E+006	392.018
335.6000	-2.17357E+006	391.644
335.5000	-1.93524E+006	391.241
335.4000	-1.07943E+006	390.883
335.3000	-373542	390.52
335.2000	130754	390.135
335.1000	196526	389.794
335.0000	149848	389.564
334.9000	150526	389.238
334.8000	184523	388.9
334.7000	435398	388.537
334.6000	27272.5	388.214
334.5000	-230516	387.883
334.4000	-294081	387.509
334.3000	-43318	387.171
334.2000	-224616	386.822
334.1000	-582876	386.446
334.0000	-217400	386.122
333.9000	-270053	385.878
333.8000	488366	385.559
333.7000	868364	385.225
333.6000	258755	384.848
333.5000	-93960.2	384.517
333.4000	51540.8	384.188
333.3000	357018	383.833
333.2000	-18744.6	383.517
333.1000	-139082	383.199
333.0000	-553999	382.865
332.9000	-1.19695E+006	382.568
332.8000	-1.14435E+006	382.243
332.7000	-1.01744E+006	381.96
332.6000	-1.12917E+006	381.665
332.5000	-1.57911E+006	381.34
332.4000	-1.75732E+006	381.058
332.3000	-1.46735E+006	380.772
332.2000	-905240	380.449
332.1000	-638970	380.152
332.0000	-299289	379.823
331.9000	214508	379.544
331.8000	506297	379.262
331.7000	1.00228E+006	378.957
331.6000	905796	378.679
331.5000	711700	378.283
331.4000	64222.5	377.964
331.3000	-682929	377.682
331.2000	-1.53456E+006	377.39
331.1000	-2.12307E+006	377.136
331.0000	-2.01406E+006	376.874
330.9000	-1.96206E+006	376.588
330.8000	-1.65307E+006	376.331
330.7000	-1.49966E+006	376.045
330.6000	-1.51259E+006	375.793
330.5000	-1.58976E+006	375.536
330.4000	-694183	375.248
330.3000	-352841	374.99
330.2000	-790171	374.626
330.1000	-1.15301E+006	374.335
330.0000	-1.10101E+006	374.081
329.9000	-687809	373.793
329.8000	-687826	373.538
329.7000	-150323	373.202
329.6000	153707	372.939
329.5000	76236.3	372.707
329.4000	-191359	372.428
329.3000	-288144	372.181
329.2000	-516646	371.846
329.1000	-1.36109E+006	371.588
329.0000	-2.06602E+006	371.37
328.9000	-2.4572E+006	371.111
328.8000	-2.68962E+006	370.871
328.7000	-3.00137E+006	370.573
328.6000	-2.61988E+006	370.357
328.5000	-2.47202E+006	370.182
328.4000	-2.80844E+006	369.923
328.3000	-2.57709E+006	369.689
328.2000	-1.98975E+006	369.443
328.1000	-1.3581E+006	369.275
328.0000	-1.38613E+006	369.137
327.9000	-1.20847E+006	368.862
327.8000	-746585	368.599
327.7000	-313734	368.357
327.6000	68037.2	368.223
327.5000	241038	368.136
327.4000	163276	367.847
327.3000	-111762	367.54
327.2000	-304572	367.259
327.1000	-31840	367.118
327.0000	25929.8	367.038
326.9000	-119141	366.757
326.8000	-665192	366.438
326.7000	-1.14645E+006	366.137
326.6000	-1.52722E+006	365.99
326.5000	-1.79287E+006	365.925
326.4000	-1.8621E+006	365.644
326.3000	-2.31806E+006	365.325
326.2000	-3.3507E+006	365.036
326.1000	-3.66692E+006	364.885
326.0000	-3.32251E+006	364.599
325.9000	-2.89597E+006	364.293
325.8000	-2.59695E+006	363.974
325.7000	-2.36365E+006	363.692
325.6000	-2.21949E+006	363.556
325.5000	-1.91924E+006	363.289
325.4000	-1.22684E+006	362.996
325.3000	-1.00444E+006	362.68
325.2000	-1.17144E+006	362.564
325.1000	-1.12983E+006	362.533
325.0000	-1.36244E+006	362.304
324.9000	-1.34719E+006	362.038
324.8000	-1.4508E+006	361.774
324.7000	-1.60734E+006	361.666
324.6000	-1.59644E+006	361.634
324.5000	-1.92625E+006	361.389
324.4000	-1.69512E+006	361.105
324.3000	-2.05256E+006	360.812
324.2000	-2.27855E+006	360.659
324.1000	-2.14194E+006	360.383
324.0000	-1.84163E+006	360.084
323.9000	-2.21701E+006	359.76
323.8000	-2.75592E+006	359.464
323.7000	-2.71085E+006	359.319
323.6000	-2.53193E+006	359.077
323.5000	-2.28398E+006	358.816
323.4000	-1.73528E+006	358.574
323.3000	-1.3891E+006	358.478
323.2000	-1.3709E+006	358.45
323.1000	-461948	358.275
323.0000	404555	358.067
322.9000	592167	357.82
322.8000	330139	357.687
322.7000	-115865	357.443
322.6000	-344801	357.163
322.5000	-401574	356.863
322.4000	-243296	356.565
322.3000	-552450	356.365
322.2000	-928023	356.024
322.1000	-1.13568E+006	355.686
322.0000	-1.29711E+006	355.372
321.9000	-1.03705E+006	355.185
321.8000	-908474	354.949
321.7000	-763251	354.714
321.6000	-1.18642E+006	354.472
321.5000	-1.23181E+006	354.237
321.4000	-1.31815E+006	354.154
321.3000	-1.19085E+006	354.041
321.2000	-922431	353.919
321.1000	-1.0816E+006	353.761
321.0000	-1.32202E+006	353.696
320.9000	-1.55332E+006	353.556
320.8000	-1.55961E+006	353.412
320.7000	-1.43275E+006	353.258
320.6000	-1.40813E+006	353.095
320.5000	-1.11123E+006	353.012
320.4000	-899129	352.818
320.3000	-647685	352.631
320.2000	-212657	352.436
320.1000	154622	352.32
320.0000	412913	352.16
319.9000	345205	352.006
319.8000	179772	351.812
319.7000	31806.1	351.61
319.6000	-543210	351.417
319.5000	-996267	351.28
319.4000	-1.26043E+006	351.15
319.3000	-1.42017E+006	350.972
319.2000	-1.66951E+006	350.85
319.1000	-1.87186E+006	350.662
319.0000	-2.14274E+006	350.495
318.9000	-2.50271E+006	350.291
318.8000	-2.7285E+006	350.152
318.7000	-2.50966E+006	349.924
318.6000	-2.1135E+006	349.689
318.5000	-1.93394E+006	349.474
318.4000	-1.7965E+006	349.274
318.3000	-2.10042E+006	349.072
318.2000	-2.22836E+006	348.906
318.1000	-2.14687E+006	348.773
318.0000	-1.59513E+006	348.606
317.9000	-1.59503E+006	348.519
317.8000	-1.75989E+006	348.407
317.7000	-2.04026E+006	348.302
317.6000	-2.1794E+006	348.132
317.5000	-1.92071E+006	348.008
317.4000	-1.61928E+006	347.839
317.3000	-1.35707E+006	347.664
317.2000	-1.33353E+006	347.461
317.1000	-1.16925E+006	347.269
317.0000	-854591	347.039
316.9000	-988803	346.822
316.8000	-1.2899E+006	346.613
316.7000	-1.22117E+006	346.424
316.6000	-1.20129E+006	346.256
316.5000	-895108	346.11
316.4000	-1.05624E+006	345.933
316.3000	-1.33794E+006	345.773
316.2000	-1.45874E+006	345.642
316.1000	-1.22407E+006	345.549
316.0000	-886654	345.488
315.9000	-851915	345.347
315.8000	-969259	345.224
315.7000	-1.0525E+006	345.063
315.6000	-962331	344.955
315.5000	-793806	344.791
315.4000	-627903	344.648
315.3000	-609758	344.442
315.2000	-691410	344.226
315.1000	-939324	344.031
315.0000	-625671	343.862
314.9000	-258786	343.704
314.8000	-391893	343.554
314.7000	-763902	343.388
314.6000	-1.30375E+006	343.245
314.5000	-1.96369E+006	343.117
314.4000	-2.01322E+006	343.013
314.3000	-1.68294E+006	342.867
314.2000	-1.60021E+006	342.732
314.1000	-1.71725E+006	342.567
314.0000	-1.70207E+006	342.407
313.9000	-1.10223E+006	342.232
313.8000	-550473	342.078
313.7000	203895	341.872
313.6000	762634	341.67
313.5000	744208	341.477
313.4000	651218	341.307
313.3000	208503	341.157
313.2000	-234002	341.021
313.1000	-443580	340.864
313.0000	-859144	340.726
312.9000	-1.07641E+006	340.611
312.8000	-1.29589E+006	340.52
312.7000	-993578	340.391
312.6000	-837406	340.27
312.5000	-859317	340.115
312.4000	-688087	339.956
312.3000	-570645	339.774
312.2000	-584696	339.606
312.1000	-276086	339.389
312.0000	-157678	339.176
311.9000	-490455	338.971
311.8000	-532396	338.784
311.7000	-566620	338.627
311.6000	-575426	338.418
311.5000	-517721	338.267
311.4000	-497423	338.122
311.3000	-351959	338.032
311.2000	-265299	337.91
311.1000	-186768	337.825
311.0000	-264774	337.732
310.9000	-46624.1	337.644
310.8000	432139	337.551
310.7000	513784	337.475
310.6000	687670	337.356
310.5000	724776	337.243
310.4000	574229	337.134
310.3000	457167	337.04
310.2000	582218	336.958
310.1000	649262	336.883
310.0000	454108	336.789
309.9000	717835	336.714
309.8000	745124	336.654
309.7000	749732	336.549
309.6000	894250	336.47
309.5000	1.02992E+006	336.374
309.4000	1.35304E+006	336.288
309.3000	1.58112E+006	336.13
309.2000	1.68548E+006	336.01
309.1000	1.2927E+006	335.861
309.0000	1.12838E+006	335.73
308.9000	1.1132E+006	335.605
308.8000	831139	335.494
308.7000	782806	335.395
308.6000	655087	335.305
308.5000	20206	335.194
308.4000	-358561	335.1
308.3000	-119375	335.039
308.2000	234578	334.922
308.1000	296716	334.834
308.0000	395094	334.747
307.9000	359175	334.667
307.8000	248396	334.516
307.7000	226434	334.408
307.6000	260997	334.296
307.5000	191206	334.129
307.4000	22030.3	334.011
307.3000	-262336	333.908
307.2000	-316813	333.817
307.1000	-421322	333.671
307.0000	-517666	333.575
306.9000	-558339	333.497
306.8000	-506375	333.444
306.7000	-324446	333.372
306.6000	-426090	333.295
306.5000	-449283	333.223
306.4000	-280528	333.094
306.3000	-223107	333.004
306.2000	89453.8	332.901
306.1000	72506.4	332.801
306.0000	-93261.7	332.654
305.9000	-241706	332.555
305.8000	-260478	332.482
305.7000	-94428.2	332.354
305.6000	-302070	332.27
305.5000	-485335	332.205
305.4000	-523444	332.164
305.3000	-516724	332.067
305.2000	-381324	332
305.1000	-275831	331.932
305.0000	-347707	331.81
304.9000	-417657	331.731
304.8000	-451992	331.646
304.7000	-133674	331.563
304.6000	-212409	331.428
304.5000	-93573.7	331.336
304.4000	-199212	331.27
304.3000	-455770	331.146
304.2000	-813612	331.07
304.1000	-1.04709E+006	331.017
304.0000	-1.13204E+006	330.984
303.9000	-1.20398E+006	330.897
303.8000	-1.16889E+006	330.83
303.7000	-1.50614E+006	330.785
303.6000	-1.66983E+006	330.68
303.5000	-1.58083E+006	330.618
303.4000	-1.30012E+006	330.554
303.3000	-1.01049E+006	330.451
303.2000	-1.21697E+006	330.346
303.1000	-1.45209E+006	330.266
303.0000	-1.59733E+006	330.221
302.9000	-1.49524E+006	330.123
302.8000	-1.41602E+006	330.055
302.7000	-1.61533E+006	330.009
302.6000	-1.72934E+006	329.921
302.5000	-1.94091E+006	329.869
302.4000	-1.85508E+006	329.816
302.3000	-1.64794E+006	329.723
302.2000	-1.69959E+006	329.629
302.1000	-1.87755E+006	329.551
302.0000	-1.79853E+006	329.497
301.9000	-1.38084E+006	329.406
301.8000	-1.10619E+006	329.337
301.7000	-1.1073E+006	329.286
301.6000	-948720	329.195
301.5000	-757134	329.146
301.4000	-522407	329.104
301.3000	-175897	329.028
301.2000	-264655	328.961
301.1000	-256059	328.905
301.0000	-431895	328.876
300.9000	-202722	328.807
300.8000	-69824.2	328.736
300.7000	-91271.3	328.681
300.6000	-155999	328.603
300.5000	-187517	328.541
300.4000	-110362	328.495
300.3000	-388577	328.412
300.2000	-274126	328.336
300.1000	-286743	328.277
300.0000	-302060	328.215
299.9000	-448903	328.162
299.8000	-705166	328.11
299.7000	-841438	328.042
299.6000	-1.01151E+006	327.981
299.5000	-876377	327.924
299.4000	-855835	327.881
299.3000	-1.09385E+006	327.813
299.2000	-1.35507E+006	327.762
299.1000	-1.237E+006	327.728
299.0000	-1.03709E+006	327.665
298.9000	-870795	327.622
298.8000	-822713	327.593
298.7000	-807142	327.542
298.6000	-1.04865E+006	327.495
298.5000	-992906	327.455
298.4000	-855469	327.4
298.3000	-984365	327.344
298.2000	-1.05619E+006	327.294
298.1000	-1.10342E+006	327.239
298.0000	-1.13147E+006	327.189
297.9000	-1.07032E+006	327.148
297.8000	-918315	327.086
297.7000	-1.10427E+006	327.034
297.6000	-1.15774E+006	327.001
297.5000	-1.17518E+006	326.943
297.4000	-1.29658E+006	326.9
297.3000	-1.55194E+006	326.865
297.2000	-1.79041E+006	326.805
297.1000	-1.9403E+006	326.758
297.0000	-2.10099E+006	326.716
296.9000	-2.1542E+006	326.658
296.8000	-2.0316E+006	326.612
296.7000	-1.65508E+006	326.578
296.6000	-1.58096E+006	326.556
296.5000	-1.4337E+006	326.515
296.4000	-1.32499E+006	326.486
296.3000	-1.45728E+006	326.467
296.2000	-1.3645E+006	326.433
296.1000	-1.33001E+006	326.406
296.0000	-1.24787E+006	326.387
295.9000	-1.32186E+006	326.349
295.8000	-1.45402E+006	326.293
295.7000	-1.49744E+006	326.259
295.6000	-1.41106E+006	326.223
295.5000	-1.31948E+006	326.165
295.4000	-1.34134E+006	326.1
295.3000	-1.25441E+006	326.064
295.2000	-1.10576E+006	326.015
295.1000	-1.08594E+006	325.954
295.0000	-1.12445E+006	325.919
294.9000	-1.0528E+006	325.873
294.8000	-1.32485E+006	325.813
294.7000	-1.552E+006	325.779
294.6000	-1.47644E+006	325.754
294.5000	-1.30967E+006	325.713
294.4000	-1.36012E+006	325.682
294.3000	-1.3128E+006	325.659
294.2000	-1.21696E+006	325.618
294.1000	-1.10697E+006	325.59
294.0000	-653368	325.575
293.9000	-259026	325.535
293.8000	-95336.9	325.507
293.7000	31873.9	325.487
293.6000	101983	325.444
293.5000	43826.6	325.391
293.4000	32355.4	325.369
293.3000	46868.2	325.331
293.2000	-93092.2	325.286
293.1000	-203139	325.27
293.0000	-199114	325.232
292.9000	-301988	325.192
292.8000	-672852	325.178
292.7000	-703868	325.158
292.6000	-1.03645E+006	325.125
292.5000	-1.04369E+006	325.074
292.4000	-1.2417E+006	325.046
292.3000	-1.50868E+006	325
292.2000	-1.75064E+006	324.951
292.1000	-2.0928E+006	324.927
292.0000	-2.28674E+006	324.886
291.9000	-2.40642E+006	324.834
291.8000	-2.32564E+006	324.792
291.7000	-2.23837E+006	324.78
291.6000	-2.23951E+006	324.746
291.5000	-2.23045E+006	324.708
291.4000	-2.20929E+006	324.691
291.3000	-1.81839E+006	324.645
291.2000	-1.46681E+006	324.587
291.1000	-1.08943E+006	324.525
291.0000	-989658	324.477
290.9000	-1.04319E+006	324.404
290.8000	-897040	324.309
290.7000	-911821	324.21
290.6000	-641168	324.103
290.5000	-379629	323.975
290.4000	-281206	323.849
290.3000	-302938	323.744
290.2000	-284604	323.62
290.1000	-490648	323.495
290.0000	-573629	323.387
289.9000	-529504	323.322
289.8000	-379557	323.276
289.7000	-559960	323.246
289.6000	-683478	323.259
289.5000	-889852	323.301
289.4000	-885149	323.359
289.3000	-668972	323.448
289.2000	-811890	323.547
289.1000	-741584	323.658
289.0000	-821106	323.756
288.9000	-783200	323.847
288.8000	-999895	323.925
288.7000	-994978	323.994
288.6000	-1.01225E+006	324.039
288.5000	-1.01781E+006	324.075
288.4000	-868127	324.088
288.3000	-787184	324.094
288.2000	-795614	324.092
288.1000	-886356	324.079
288.0000	-772166	324.064
287.9000	-544834	324.026
287.8000	-469310	324.005
287.7000	-236060	323.987
287.6000	-361518	323.966
287.5000	-332143	323.943
287.4000	-468614	323.926
287.3000	-395972	323.905
287.2000	-760437	323.888
287.1000	-736613	323.869
287.0000	-797004	323.839
286.9000	-1.03454E+006	323.819
286.8000	-1.14887E+006	323.803
286.7000	-1.35274E+006	323.791
286.6000	-1.50936E+006	323.76
286.5000	-1.37717E+006	323.753
286.4000	-980584	323.757
286.3000	-859806	323.757
286.2000	-1.03079E+006	323.761
286.1000	-1.04515E+006	323.748
286.0000	-876773	323.748
285.9000	-884898	323.746
285.8000	-631856	323.744
285.7000	-603594	323.732
285.6000	-908902	323.701
285.5000	-1.0243E+006	323.698
285.4000	-811785	323.703
285.3000	-638896	323.707
285.2000	-899346	323.695
285.1000	-965725	323.678
285.0000	-1.03862E+006	323.683
284.9000	-1.22432E+006	323.685
284.8000	-956299	323.693
284.7000	-851620	323.689
284.6000	-1.06511E+006	323.669
284.5000	-1.24481E+006	323.673
284.4000	-982127	323.686
284.3000	-904721	323.695
284.2000	-456207	323.695
284.1000	-94906.3	323.684
284.0000	-63452.8	323.669
283.9000	-19890.7	323.672
283.8000	174689	323.681
283.7000	452128	323.684
283.6000	480940	323.673
283.5000	938043	323.672
283.4000	1.05543E+006	323.665
283.3000	785889	323.677
283.2000	787916	323.702
283.1000	628526	323.706
283.0000	543009	323.702
282.9000	595839	323.695
282.8000	690375	323.695
282.7000	449398	323.712
282.6000	128757	323.73
282.5000	174025	323.742
282.4000	101898	323.737
282.3000	68654.4	323.734
282.2000	8446.59	323.733
282.1000	-256151	323.749
282.0000	-619459	323.763
281.9000	-916026	323.762
281.8000	-839817	323.76
281.7000	-928318	323.753
281.6000	-937208	323.753
281.5000	-779643	323.756
281.4000	-621206	323.781
281.3000	-482066	323.798
