TITLE	ACE2_doxer_0.6uM
DATA TYPE	
ORIGIN	JASCO
OWNER	
DATE	24/04/08
TIME	19:01:18
SPECTROMETER/DATA SYSTEM	
LOCALE	1033
RESOLUTION	
DELTAX	-0.1
XUNITS	NANOMETERS
YUNITS	CD [mdeg]
Y2UNITS	HT [V]
FIRSTX	  350.0000
LASTX	  190.0000
NPOINTS	    1601
FIRSTY	    -0.76562
MAXY	     6.80103
MINY	    -2.62895
XYDATA
350.0000	-0.765623	493.041
349.9000	-0.16498	492.443
349.8000	0.137677	491.526
349.7000	0.366585	490.59
349.6000	0.365167	489.909
349.5000	0.46208	489.314
349.4000	0.628776	488.398
349.3000	0.956561	487.748
349.2000	0.802182	487.18
349.1000	0.640212	486.293
349.0000	0.614609	485.633
348.9000	0.696763	485.057
348.8000	0.768849	484.15
348.7000	0.707753	483.228
348.6000	0.741842	482.547
348.5000	0.72701	481.937
348.4000	0.598558	480.952
348.3000	0.446104	480.195
348.2000	0.311746	479.519
348.1000	0.104214	478.542
348.0000	0.0846552	477.806
347.9000	-0.0235177	477.156
347.8000	-0.288322	476.218
347.7000	-0.702515	475.274
347.6000	-0.983566	474.609
347.5000	-1.02801	474.068
347.4000	-0.933616	473.232
347.3000	-0.584699	472.612
347.2000	-0.508728	472.075
347.1000	-0.425926	471.266
347.0000	-0.287859	470.672
346.9000	-0.192472	470.158
346.8000	-0.0576382	469.359
346.7000	0.151624	468.551
346.6000	0.180823	467.945
346.5000	0.0780493	467.127
346.4000	-0.0703864	466.292
346.3000	-0.179808	465.645
346.2000	-0.39375	464.799
346.1000	-0.18275	463.952
346.0000	0.0705102	463.319
345.9000	0.176101	462.762
345.8000	0.26249	461.902
345.7000	0.40458	461.27
345.6000	0.630424	460.737
345.5000	0.753769	459.972
345.4000	0.859003	459.416
345.3000	0.675921	458.939
345.2000	0.553759	458.195
345.1000	0.416365	457.444
345.0000	0.381912	456.903
344.9000	0.413505	456.211
344.8000	0.410348	455.505
344.7000	0.554444	454.961
344.6000	0.501631	454.241
344.5000	0.577804	453.508
344.4000	0.680267	452.961
344.3000	0.822364	452.238
344.2000	0.879887	451.505
344.1000	0.825374	450.945
344.0000	0.624517	450.216
343.9000	0.343247	449.48
343.8000	-0.0349755	448.935
343.7000	-0.227807	448.471
343.6000	-0.402584	447.774
343.5000	-0.539737	447.27
343.4000	-0.607437	446.845
343.3000	-0.59319	446.155
343.2000	-0.701154	445.643
343.1000	-0.759066	445.2
343.0000	-0.750259	444.568
342.9000	-0.514861	443.926
342.8000	-0.363253	443.439
342.7000	-0.249336	442.775
342.6000	-0.370721	442.089
342.5000	-0.668525	441.583
342.4000	-0.563392	440.978
342.3000	-0.313414	440.37
342.2000	0.0951625	439.901
342.1000	0.311984	439.279
342.0000	0.329795	438.652
341.9000	0.275576	438.207
341.8000	0.231063	437.622
341.7000	0.48623	437.042
341.6000	0.508517	436.602
341.5000	0.318352	436.031
341.4000	-0.0229874	435.447
341.3000	-0.250295	435.013
341.2000	-0.380306	434.42
341.1000	-0.584704	433.806
341.0000	-0.83904	433.345
340.9000	-0.915855	432.75
340.8000	-0.993882	432.14
340.7000	-1.00401	431.662
340.6000	-0.964979	431.074
340.5000	-0.820562	430.484
340.4000	-0.841252	430.047
340.3000	-0.694296	429.484
340.2000	-0.560354	428.917
340.1000	-0.300816	428.512
340.0000	-0.147424	428.005
339.9000	-0.127322	427.494
339.8000	-0.229617	427.106
339.7000	-0.264604	426.609
339.6000	-0.186281	426.111
339.5000	-0.0069859	425.764
339.4000	0.0800276	425.283
339.3000	0.0251842	424.773
339.2000	-0.20133	424.214
339.1000	-0.264134	423.71
339.0000	-0.244916	423.193
338.9000	-0.262736	422.608
338.8000	-0.378161	422.067
338.7000	-0.521218	421.515
338.6000	-0.519119	420.922
338.5000	-0.32469	420.408
338.4000	-0.17978	420.023
338.3000	-0.0835556	419.549
338.2000	0.142333	419.076
338.1000	0.323731	418.74
338.0000	0.422595	418.294
337.9000	0.653839	417.849
337.8000	0.688388	417.535
337.7000	0.558294	417.125
337.6000	0.520174	416.696
337.5000	0.590801	416.367
337.4000	0.427593	415.935
337.3000	0.416907	415.487
337.2000	0.5041	414.997
337.1000	0.40113	414.551
337.0000	0.21661	414.093
336.9000	0.146826	413.599
336.8000	-0.0176528	413.161
336.7000	-0.134437	412.727
336.6000	-0.070411	412.256
336.5000	-0.18014	411.822
336.4000	-0.252891	411.517
336.3000	-0.38572	411.093
336.2000	-0.330939	410.665
336.1000	-0.233299	410.355
336.0000	-0.0630803	409.967
335.9000	0.104894	409.555
335.8000	-0.00292251	409.09
335.7000	0.000451463	408.676
335.6000	0.00555171	408.257
335.5000	0.0424523	407.821
335.4000	-0.0516693	407.435
335.3000	-0.157917	407.045
335.2000	-0.148819	406.636
335.1000	-0.150862	406.274
335.0000	-0.100644	406.03
334.9000	-0.00205205	405.682
334.8000	0.0730494	405.315
334.7000	-0.00719478	404.923
334.6000	0.106754	404.589
334.5000	0.189373	404.247
334.4000	0.15236	403.827
334.3000	0.16259	403.434
334.2000	0.183164	403.03
334.1000	0.123168	402.596
334.0000	0.0451248	402.221
333.9000	0.0430513	401.938
333.8000	0.0331003	401.564
333.7000	0.00644802	401.182
333.6000	-0.0016872	400.777
333.5000	-0.0553313	400.427
333.4000	-0.164136	400.076
333.3000	-0.254647	399.708
333.2000	-0.269865	399.389
333.1000	-0.231413	399.068
333.0000	-0.278105	398.718
332.9000	-0.374733	398.4
332.8000	-0.437098	398.041
332.7000	-0.391516	397.725
332.6000	-0.353353	397.4
332.5000	-0.22909	397.044
332.4000	-0.214422	396.724
332.3000	-0.223726	396.4
332.2000	-0.230108	396.033
332.1000	-0.024856	395.706
332.0000	0.0944349	395.358
331.9000	0.110628	395.058
331.8000	0.00690385	394.754
331.7000	-0.0479151	394.406
331.6000	0.0436902	394.091
331.5000	0.100434	393.655
331.4000	0.152877	393.309
331.3000	0.094431	393
331.2000	0.0396965	392.661
331.1000	0.056312	392.359
331.0000	0.200152	392.053
330.9000	0.257853	391.734
330.8000	0.225098	391.454
330.7000	0.141926	391.137
330.6000	0.117258	390.863
330.5000	0.105281	390.587
330.4000	0.104241	390.285
330.3000	0.0840148	390.017
330.2000	-0.028518	389.639
330.1000	-0.0780381	389.336
330.0000	-0.15722	389.063
329.9000	-0.177827	388.759
329.8000	-0.123339	388.487
329.7000	-0.0954901	388.119
329.6000	-0.0396514	387.831
329.5000	-0.196227	387.572
329.4000	-0.179395	387.262
329.3000	-0.141025	386.984
329.2000	-0.100627	386.606
329.1000	-0.114285	386.307
329.0000	-0.138247	386.052
328.9000	-0.146625	385.771
328.8000	-0.197614	385.517
328.7000	-0.0861534	385.173
328.6000	0.0242824	384.919
328.5000	0.127516	384.711
328.4000	0.206558	384.442
328.3000	0.184869	384.197
328.2000	0.2037	383.883
328.1000	0.241085	383.637
328.0000	0.193988	383.416
327.9000	0.137751	383.132
327.8000	0.0502924	382.876
327.7000	-0.0188993	382.593
327.6000	-0.0654257	382.407
327.5000	-0.0542066	382.27
327.4000	-0.0400183	381.991
327.3000	-0.113255	381.722
327.2000	-0.148918	381.412
327.1000	-0.146028	381.197
327.0000	-0.246077	381.02
326.9000	-0.342367	380.733
326.8000	-0.4269	380.438
326.7000	-0.437972	380.103
326.6000	-0.406896	379.899
326.5000	-0.445925	379.76
326.4000	-0.434717	379.481
326.3000	-0.446686	379.2
326.2000	-0.37732	378.907
326.1000	-0.325593	378.709
326.0000	-0.307062	378.386
325.9000	-0.406447	378.087
325.8000	-0.449288	377.8
325.7000	-0.500245	377.534
325.6000	-0.415911	377.394
325.5000	-0.326051	377.108
325.4000	-0.296115	376.825
325.3000	-0.279895	376.533
325.2000	-0.282558	376.362
325.1000	-0.282319	376.249
325.0000	-0.317296	375.966
324.9000	-0.347251	375.663
324.8000	-0.341721	375.348
324.7000	-0.374688	375.188
324.6000	-0.44472	375.103
324.5000	-0.439796	374.828
324.4000	-0.448676	374.549
324.3000	-0.438926	374.294
324.2000	-0.387171	374.159
324.1000	-0.336214	373.893
324.0000	-0.281923	373.621
323.9000	-0.385302	373.331
323.8000	-0.349903	373.066
323.7000	-0.428422	372.93
323.6000	-0.378809	372.656
323.5000	-0.317324	372.354
323.4000	-0.233271	372.055
323.3000	-0.155193	371.897
323.2000	-0.178996	371.798
323.1000	-0.199382	371.532
323.0000	-0.311444	371.243
322.9000	-0.303007	370.955
322.8000	-0.263503	370.815
322.7000	-0.261128	370.561
322.6000	-0.212826	370.282
322.5000	-0.149986	369.996
322.4000	-0.0968591	369.711
322.3000	0.0638685	369.537
322.2000	0.207393	369.236
322.1000	0.313478	368.911
322.0000	0.370271	368.588
321.9000	0.3859	368.396
321.8000	0.303409	368.092
321.7000	0.18789	367.777
321.6000	0.102615	367.457
321.5000	-0.0123726	367.162
321.4000	-0.157837	367.006
321.3000	-0.192209	366.784
321.2000	-0.166608	366.562
321.1000	-0.241597	366.341
321.0000	-0.322352	366.261
320.9000	-0.355661	366.104
320.8000	-0.465041	365.945
320.7000	-0.476382	365.8
320.6000	-0.379834	365.653
320.5000	-0.364473	365.605
320.4000	-0.446762	365.435
320.3000	-0.507354	365.248
320.2000	-0.499576	365.078
320.1000	-0.495655	365.014
320.0000	-0.38243	364.848
319.9000	-0.240989	364.664
319.8000	-0.253466	364.472
319.7000	-0.318121	364.273
319.6000	-0.338374	364.05
319.5000	-0.245575	363.889
319.4000	-0.127497	363.709
319.3000	-0.0875502	363.494
319.2000	-0.0656165	363.384
319.1000	-0.129339	363.179
319.0000	-0.0977612	362.959
318.9000	-0.024917	362.739
318.8000	0.0487338	362.619
318.7000	0.0606202	362.389
318.6000	0.0748655	362.15
318.5000	0.145475	361.949
318.4000	0.141081	361.746
318.3000	0.102166	361.521
318.2000	0.00721108	361.347
318.1000	-0.159849	361.169
318.0000	-0.168816	360.978
317.9000	-0.122362	360.903
317.8000	-0.17615	360.775
317.7000	-0.314728	360.62
317.6000	-0.420573	360.428
317.5000	-0.458008	360.328
317.4000	-0.441131	360.157
317.3000	-0.303463	359.978
317.2000	-0.264634	359.783
317.1000	-0.349676	359.58
317.0000	-0.440827	359.316
316.9000	-0.432817	359.094
316.8000	-0.500954	358.89
316.7000	-0.55729	358.685
316.6000	-0.625256	358.483
316.5000	-0.663196	358.322
316.4000	-0.713457	358.146
316.3000	-0.81789	357.967
316.2000	-0.805796	357.797
316.1000	-0.662439	357.679
316.0000	-0.504032	357.562
315.9000	-0.433307	357.401
315.8000	-0.429463	357.295
315.7000	-0.429386	357.121
315.6000	-0.376735	356.969
315.5000	-0.296215	356.79
315.4000	-0.253755	356.676
315.3000	-0.315522	356.47
315.2000	-0.455848	356.252
315.1000	-0.533438	356.06
315.0000	-0.531602	355.877
314.9000	-0.527052	355.692
314.8000	-0.596774	355.533
314.7000	-0.69746	355.359
314.6000	-0.710196	355.193
314.5000	-0.763949	355.038
314.4000	-0.805908	354.924
314.3000	-0.771458	354.783
314.2000	-0.775001	354.64
314.1000	-0.749266	354.449
314.0000	-0.747206	354.281
313.9000	-0.7452	354.114
313.8000	-0.741441	353.959
313.7000	-0.73183	353.733
313.6000	-0.723741	353.528
313.5000	-0.681746	353.34
313.4000	-0.636187	353.158
313.3000	-0.615499	352.985
313.2000	-0.639776	352.84
313.1000	-0.660197	352.681
313.0000	-0.65354	352.526
312.9000	-0.650588	352.384
312.8000	-0.565667	352.284
312.7000	-0.538208	352.148
312.6000	-0.560157	352.01
312.5000	-0.572643	351.84
312.4000	-0.590812	351.682
312.3000	-0.557912	351.512
312.2000	-0.493943	351.347
312.1000	-0.512321	351.116
312.0000	-0.592907	350.901
311.9000	-0.634164	350.696
311.8000	-0.649043	350.456
311.7000	-0.645566	350.263
311.6000	-0.628729	350.059
311.5000	-0.541807	349.891
311.4000	-0.487838	349.681
311.3000	-0.47633	349.546
311.2000	-0.474058	349.417
311.1000	-0.499262	349.306
311.0000	-0.50459	349.182
310.9000	-0.555421	349.078
310.8000	-0.574855	348.964
310.7000	-0.635556	348.862
310.6000	-0.635018	348.727
310.5000	-0.658834	348.609
310.4000	-0.639038	348.495
310.3000	-0.544248	348.394
310.2000	-0.482217	348.302
310.1000	-0.418486	348.227
310.0000	-0.333936	348.148
309.9000	-0.280897	348.078
309.8000	-0.29711	348.013
309.7000	-0.358644	347.918
309.6000	-0.318723	347.845
309.5000	-0.316081	347.728
309.4000	-0.31632	347.628
309.3000	-0.349185	347.483
309.2000	-0.361558	347.363
309.1000	-0.394913	347.182
309.0000	-0.452997	347.029
308.9000	-0.373868	346.895
308.8000	-0.385653	346.771
308.7000	-0.436274	346.66
308.6000	-0.524402	346.561
308.5000	-0.519403	346.455
308.4000	-0.472306	346.339
308.3000	-0.456043	346.271
308.2000	-0.388065	346.165
308.1000	-0.397811	346.08
308.0000	-0.389441	345.971
307.9000	-0.358576	345.88
307.8000	-0.362304	345.733
307.7000	-0.348523	345.618
307.6000	-0.350677	345.488
307.5000	-0.382874	345.309
307.4000	-0.449768	345.17
307.3000	-0.525599	345.041
307.2000	-0.612631	344.938
307.1000	-0.709317	344.793
307.0000	-0.749925	344.688
306.9000	-0.782984	344.583
306.8000	-0.854667	344.515
306.7000	-0.932215	344.442
306.6000	-0.93417	344.352
306.5000	-0.818842	344.271
306.4000	-0.799661	344.143
306.3000	-0.755064	344.049
306.2000	-0.7331	343.928
306.1000	-0.735259	343.819
306.0000	-0.709329	343.671
305.9000	-0.720151	343.562
305.8000	-0.738122	343.478
305.7000	-0.803301	343.358
305.6000	-0.857271	343.273
305.5000	-0.94593	343.183
305.4000	-0.993994	343.126
305.3000	-0.962107	343.03
305.2000	-0.92965	342.962
305.1000	-0.876947	342.878
305.0000	-0.871969	342.751
304.9000	-0.971977	342.658
304.8000	-0.966548	342.546
304.7000	-0.939503	342.448
304.6000	-0.86319	342.315
304.5000	-0.897659	342.2
304.4000	-0.921862	342.105
304.3000	-0.871639	341.987
304.2000	-0.838655	341.918
304.1000	-0.700484	341.855
304.0000	-0.63688	341.817
303.9000	-0.616666	341.729
303.8000	-0.57262	341.646
303.7000	-0.45315	341.593
303.6000	-0.450079	341.485
303.5000	-0.453768	341.411
303.4000	-0.524056	341.317
303.3000	-0.630715	341.194
303.2000	-0.66547	341.078
303.1000	-0.680301	340.986
303.0000	-0.686777	340.929
302.9000	-0.740955	340.831
302.8000	-0.729238	340.752
302.7000	-0.767942	340.689
302.6000	-0.786563	340.597
302.5000	-0.732283	340.545
302.4000	-0.683866	340.485
302.3000	-0.693828	340.384
302.2000	-0.726902	340.289
302.1000	-0.754459	340.197
302.0000	-0.834675	340.134
301.9000	-0.811876	340.043
301.8000	-0.844439	339.961
301.7000	-0.905714	339.896
301.6000	-0.914514	339.8
301.5000	-0.906767	339.746
301.4000	-0.840772	339.694
301.3000	-0.757277	339.612
301.2000	-0.679412	339.537
301.1000	-0.654434	339.472
301.0000	-0.647359	339.439
300.9000	-0.631971	339.361
300.8000	-0.639543	339.283
300.7000	-0.72746	339.22
300.6000	-0.775666	339.136
300.5000	-0.860484	339.069
300.4000	-0.960254	339.019
300.3000	-0.973853	338.942
300.2000	-0.969578	338.865
300.1000	-0.968718	338.801
300.0000	-0.963676	338.734
299.9000	-0.886961	338.678
299.8000	-0.822373	338.625
299.7000	-0.821853	338.555
299.6000	-0.743021	338.492
299.5000	-0.668769	338.43
299.4000	-0.682744	338.379
299.3000	-0.714977	338.309
299.2000	-0.655671	338.257
299.1000	-0.681573	338.215
299.0000	-0.675834	338.148
298.9000	-0.644837	338.096
298.8000	-0.576701	338.059
298.7000	-0.627439	337.996
298.6000	-0.68597	337.943
298.5000	-0.737405	337.888
298.4000	-0.765389	337.819
298.3000	-0.764476	337.757
298.2000	-0.744105	337.692
298.1000	-0.749145	337.626
298.0000	-0.811655	337.564
297.9000	-0.778529	337.513
297.8000	-0.726888	337.441
297.7000	-0.565593	337.387
297.6000	-0.471969	337.344
297.5000	-0.460633	337.275
297.4000	-0.537149	337.223
297.3000	-0.60801	337.178
297.2000	-0.5926	337.106
297.1000	-0.586585	337.051
297.0000	-0.603926	336.999
296.9000	-0.71234	336.923
296.8000	-0.818121	336.862
296.7000	-0.903118	336.815
296.6000	-0.842675	336.783
296.5000	-0.817694	336.733
296.4000	-0.845398	336.694
296.3000	-0.85911	336.663
296.2000	-0.881955	336.618
296.1000	-0.847162	336.58
296.0000	-0.754921	336.554
295.9000	-0.689431	336.509
295.8000	-0.624556	336.444
295.7000	-0.559668	336.402
295.6000	-0.511063	336.354
295.5000	-0.467956	336.29
295.4000	-0.473097	336.216
295.3000	-0.467787	336.172
295.2000	-0.51565	336.11
295.1000	-0.581101	336.034
295.0000	-0.63021	335.991
294.9000	-0.754361	335.93
294.8000	-0.775284	335.858
294.7000	-0.753264	335.813
294.6000	-0.749473	335.772
294.5000	-0.74811	335.712
294.4000	-0.742877	335.668
294.3000	-0.716678	335.638
294.2000	-0.707678	335.581
294.1000	-0.638859	335.541
294.0000	-0.64244	335.512
293.9000	-0.704654	335.461
293.8000	-0.702528	335.428
293.7000	-0.764913	335.402
293.6000	-0.764786	335.351
293.5000	-0.760774	335.288
293.4000	-0.730049	335.258
293.3000	-0.67336	335.217
293.2000	-0.639649	335.164
293.1000	-0.605261	335.138
293.0000	-0.583446	335.09
292.9000	-0.504939	335.04
292.8000	-0.501178	335.017
292.7000	-0.477185	334.991
292.6000	-0.470346	334.947
292.5000	-0.578216	334.884
292.4000	-0.64758	334.845
292.3000	-0.591444	334.794
292.2000	-0.583005	334.742
292.1000	-0.663446	334.711
292.0000	-0.734648	334.664
291.9000	-0.724869	334.609
291.8000	-0.70814	334.563
291.7000	-0.648765	334.547
291.6000	-0.541979	334.507
291.5000	-0.556588	334.46
291.4000	-0.518358	334.438
291.3000	-0.481003	334.385
291.2000	-0.457758	334.316
291.1000	-0.474689	334.248
291.0000	-0.495708	334.198
290.9000	-0.508928	334.123
290.8000	-0.517723	334.029
290.7000	-0.497666	333.932
290.6000	-0.585069	333.819
290.5000	-0.644773	333.685
290.4000	-0.652417	333.551
290.3000	-0.638664	333.433
290.2000	-0.669918	333.287
290.1000	-0.761879	333.128
290.0000	-0.847288	332.983
289.9000	-0.911523	332.879
289.8000	-0.902373	332.784
289.7000	-0.899139	332.712
289.6000	-0.884365	332.678
289.5000	-0.90773	332.681
289.4000	-0.912859	332.713
289.3000	-0.835373	332.781
289.2000	-0.794535	332.868
289.1000	-0.749182	332.979
289.0000	-0.742811	333.084
288.9000	-0.67309	333.191
288.8000	-0.664822	333.287
288.7000	-0.649697	333.372
288.6000	-0.559679	333.437
288.5000	-0.575961	333.482
288.4000	-0.624242	333.51
288.3000	-0.624998	333.529
288.2000	-0.65042	333.525
288.1000	-0.704219	333.514
288.0000	-0.7638	333.489
287.9000	-0.816266	333.451
287.8000	-0.882499	333.424
287.7000	-0.928723	333.393
287.6000	-0.876038	333.37
287.5000	-0.883635	333.332
287.4000	-0.880746	333.312
287.3000	-0.834665	333.292
287.2000	-0.844527	333.272
287.1000	-0.790334	333.257
287.0000	-0.739234	333.219
286.9000	-0.627147	333.202
286.8000	-0.58424	333.187
286.7000	-0.591315	333.167
286.6000	-0.538538	333.143
286.5000	-0.568745	333.132
286.4000	-0.482333	333.127
286.3000	-0.451769	333.123
286.2000	-0.501606	333.115
286.1000	-0.543079	333.1
286.0000	-0.566993	333.099
285.9000	-0.528637	333.09
285.8000	-0.496684	333.088
285.7000	-0.479332	333.058
285.6000	-0.541097	333.032
285.5000	-0.592082	333.03
285.4000	-0.58964	333.03
285.3000	-0.56105	333.036
285.2000	-0.602721	333.01
285.1000	-0.626164	332.994
285.0000	-0.667108	332.997
284.9000	-0.656076	332.992
284.8000	-0.615321	332.993
284.7000	-0.603522	332.964
284.6000	-0.587581	332.942
284.5000	-0.602449	332.94
284.4000	-0.549713	332.944
284.3000	-0.535884	332.954
284.2000	-0.513614	332.934
284.1000	-0.581461	332.922
284.0000	-0.663714	332.897
283.9000	-0.639139	332.897
283.8000	-0.587193	332.908
283.7000	-0.521263	332.894
283.6000	-0.563375	332.878
283.5000	-0.570567	332.858
283.4000	-0.626367	332.847
283.3000	-0.620075	332.859
283.2000	-0.621775	332.872
283.1000	-0.688246	332.88
283.0000	-0.74558	332.87
282.9000	-0.850781	332.862
282.8000	-0.862758	332.858
282.7000	-0.900499	332.873
282.6000	-0.899266	332.889
282.5000	-0.894004	332.891
282.4000	-0.868599	332.888
282.3000	-0.80355	332.887
282.2000	-0.760133	332.886
282.1000	-0.720822	332.905
282.0000	-0.665544	332.923
281.9000	-0.599593	332.929
281.8000	-0.557545	332.925
281.7000	-0.565358	332.917
281.6000	-0.593541	332.912
281.5000	-0.574049	332.907
281.4000	-0.569392	332.922
281.3000	-0.566055	332.927
281.2000	-0.572049	332.921
281.1000	-0.59051	332.911
281.0000	-0.610947	332.9
280.9000	-0.588448	332.894
280.8000	-0.570665	332.884
280.7000	-0.592365	332.876
280.6000	-0.608362	332.875
280.5000	-0.644514	332.863
280.4000	-0.678274	332.852
280.3000	-0.689101	332.842
280.2000	-0.732765	332.833
280.1000	-0.72022	332.824
280.0000	-0.67311	332.818
279.9000	-0.672678	332.807
279.8000	-0.665805	332.783
279.7000	-0.668386	332.775
279.6000	-0.692647	332.768
279.5000	-0.71598	332.761
279.4000	-0.710795	332.757
279.3000	-0.742024	332.751
279.2000	-0.803283	332.747
279.1000	-0.763294	332.75
