TITLE	D2_1.0uM
DATA TYPE	
ORIGIN	JASCO
OWNER	
DATE	24/03/11
TIME	14:19:57
SPECTROMETER/DATA SYSTEM	
LOCALE	1033
RESOLUTION	
DELTAX	-0.1
XUNITS	NANOMETERS
YUNITS	CD [mdeg]
Y2UNITS	HT [V]
FIRSTX	  350.0000
LASTX	  190.0000
NPOINTS	    1601
FIRSTY	    -0.07474
MAXY	     2.50207
MINY	    -0.99569
XYDATA
350.0000	-0.0747404	473.605
349.9000	-0.0239287	473.005
349.8000	0.147927	472.12
349.7000	0.564149	471.235
349.6000	0.503646	470.579
349.5000	0.454297	470.002
349.4000	0.39425	469.126
349.3000	0.309521	468.497
349.2000	0.234665	467.964
349.1000	0.0365073	467.129
349.0000	-0.090873	466.514
348.9000	-0.24001	465.964
348.8000	-0.45989	465.095
348.7000	-0.651444	464.213
348.6000	-0.647058	463.572
348.5000	-0.643545	463.014
348.4000	-0.479948	462.135
348.3000	-0.413357	461.473
348.2000	-0.2508	460.884
348.1000	-0.0891519	460.036
348.0000	-0.0475544	459.42
347.9000	0.0592989	458.889
347.8000	0.271052	458.071
347.7000	0.295744	457.235
347.6000	0.160505	456.636
347.5000	0.0765474	456.138
347.4000	0.0196016	455.355
347.3000	-0.126393	454.755
347.2000	-0.253526	454.224
347.1000	-0.173072	453.444
347.0000	-0.192516	452.872
346.9000	-0.04329	452.381
346.8000	-0.0177875	451.612
346.7000	0.0868786	450.836
346.6000	0.22187	450.266
346.5000	0.230544	449.523
346.4000	0.179203	448.77
346.3000	0.0688234	448.191
346.2000	-0.0569751	447.433
346.1000	-0.341919	446.662
346.0000	-0.4709	446.102
345.9000	-0.535908	445.619
345.8000	-0.561266	444.846
345.7000	-0.566869	444.268
345.6000	-0.613451	443.763
345.5000	-0.511135	443.046
345.4000	-0.584116	442.518
345.3000	-0.540111	442.063
345.2000	-0.506829	441.353
345.1000	-0.373639	440.634
345.0000	-0.348459	440.111
344.9000	-0.255594	439.443
344.8000	-0.0735767	438.766
344.7000	-0.0543364	438.241
344.6000	-0.0960336	437.573
344.5000	-0.0948637	436.898
344.4000	-0.217624	436.4
344.3000	-0.382168	435.736
344.2000	-0.430544	435.067
344.1000	-0.470959	434.567
344.0000	-0.501532	433.932
343.9000	-0.415951	433.292
343.8000	-0.372206	432.813
343.7000	-0.290711	432.389
343.6000	-0.195749	431.722
343.5000	-0.0859333	431.234
343.4000	-0.187482	430.817
343.3000	-0.157785	430.175
343.2000	-0.26423	429.688
343.1000	-0.359719	429.259
343.0000	-0.392519	428.645
342.9000	-0.291491	428.028
342.8000	-0.245714	427.58
342.7000	-0.162751	426.99
342.6000	-0.0586658	426.39
342.5000	-0.0603392	425.944
342.4000	0.00337438	425.377
342.3000	0.0924603	424.806
342.2000	0.0706016	424.365
342.1000	-0.0286294	423.79
342.0000	0.14163	423.214
341.9000	0.12612	422.794
341.8000	0.00762853	422.232
341.7000	0.00295324	421.667
341.6000	-0.0543923	421.244
341.5000	-0.0701598	420.698
341.4000	-0.0701608	420.141
341.3000	-0.100143	419.724
341.2000	-0.287929	419.162
341.1000	-0.436287	418.593
341.0000	-0.344798	418.183
340.9000	-0.361507	417.633
340.8000	-0.3566	417.077
340.7000	-0.415135	416.649
340.6000	-0.459367	416.126
340.5000	-0.362208	415.598
340.4000	-0.206072	415.211
340.3000	-0.0344928	414.688
340.2000	-0.0599272	414.151
340.1000	-0.177424	413.754
340.0000	-0.204153	413.257
339.9000	-0.217735	412.755
339.8000	-0.197457	412.37
339.7000	-0.228075	411.869
339.6000	-0.384823	411.36
339.5000	-0.432995	410.998
339.4000	-0.423481	410.527
339.3000	-0.444875	410.038
339.2000	-0.391599	409.51
339.1000	-0.376214	409.033
339.0000	-0.448328	408.54
338.9000	-0.658424	408
338.8000	-0.601778	407.521
338.7000	-0.598879	407.03
338.6000	-0.681498	406.49
338.5000	-0.605479	406.014
338.4000	-0.492375	405.658
338.3000	-0.463303	405.226
338.2000	-0.292589	404.796
338.1000	-0.0742237	404.486
338.0000	-0.0335153	404.057
337.9000	-0.116749	403.62
337.8000	-0.130927	403.316
337.7000	-0.0883564	402.919
337.6000	-0.122865	402.514
337.5000	-0.158665	402.202
337.4000	-0.226366	401.784
337.3000	-0.214622	401.356
337.2000	-0.184327	400.892
337.1000	-0.0168893	400.487
337.0000	0.0251232	400.066
336.9000	0.0125286	399.609
336.8000	-0.0501789	399.201
336.7000	-0.0236815	398.791
336.6000	-0.00115036	398.344
336.5000	-0.143058	397.936
336.4000	-0.151231	397.647
336.3000	-0.268194	397.241
336.2000	-0.351144	396.829
336.1000	-0.493276	396.523
336.0000	-0.604692	396.149
335.9000	-0.638809	395.763
335.8000	-0.606669	395.335
335.7000	-0.54782	394.954
335.6000	-0.583318	394.563
335.5000	-0.637869	394.166
335.4000	-0.738616	393.826
335.3000	-0.714586	393.481
335.2000	-0.570473	393.094
335.1000	-0.634281	392.733
335.0000	-0.681079	392.485
334.9000	-0.663736	392.155
334.8000	-0.759913	391.808
334.7000	-0.689333	391.428
334.6000	-0.554201	391.089
334.5000	-0.425219	390.741
334.4000	-0.400018	390.351
334.3000	-0.437398	390.001
334.2000	-0.445551	389.649
334.1000	-0.471821	389.265
334.0000	-0.369048	388.931
333.9000	-0.355409	388.69
333.8000	-0.400213	388.37
333.7000	-0.435421	388.04
333.6000	-0.415674	387.67
333.5000	-0.28664	387.348
333.4000	-0.275525	387.017
333.3000	-0.326452	386.666
333.2000	-0.395088	386.354
333.1000	-0.449985	386.036
333.0000	-0.407306	385.702
332.9000	-0.272905	385.405
332.8000	-0.218679	385.074
332.7000	-0.316206	384.781
332.6000	-0.359996	384.484
332.5000	-0.260196	384.156
332.4000	-0.268157	383.86
332.3000	-0.320271	383.558
332.2000	-0.426174	383.213
332.1000	-0.640019	382.89
332.0000	-0.873669	382.544
331.9000	-0.884847	382.253
331.8000	-0.735568	381.962
331.7000	-0.661396	381.641
331.6000	-0.557467	381.352
331.5000	-0.481771	380.941
331.4000	-0.452528	380.613
331.3000	-0.432748	380.324
331.2000	-0.372622	380.015
331.1000	-0.412192	379.74
331.0000	-0.545552	379.456
330.9000	-0.676242	379.157
330.8000	-0.818352	378.888
330.7000	-0.922786	378.585
330.6000	-0.958104	378.319
330.5000	-0.880807	378.054
330.4000	-0.742768	377.769
330.3000	-0.633333	377.515
330.2000	-0.568378	377.15
330.1000	-0.583015	376.853
330.0000	-0.47767	376.589
329.9000	-0.389214	376.302
329.8000	-0.263384	376.052
329.7000	-0.20762	375.712
329.6000	-0.241151	375.437
329.5000	-0.238773	375.197
329.4000	-0.273327	374.916
329.3000	-0.245319	374.664
329.2000	-0.361019	374.308
329.1000	-0.407255	374.032
329.0000	-0.446577	373.794
328.9000	-0.427465	373.528
328.8000	-0.442746	373.289
328.7000	-0.468742	372.956
328.6000	-0.438276	372.703
328.5000	-0.377718	372.494
328.4000	-0.222347	372.248
328.3000	-0.146723	372.028
328.2000	-0.0841714	371.754
328.1000	-0.0665536	371.546
328.0000	-0.110094	371.366
327.9000	-0.0674376	371.109
327.8000	-0.0830748	370.88
327.7000	-0.0773029	370.638
327.6000	-0.123006	370.475
327.5000	-0.187305	370.351
327.4000	-0.229041	370.077
327.3000	-0.198147	369.811
327.2000	-0.234727	369.522
327.1000	-0.222394	369.34
327.0000	-0.123932	369.209
326.9000	-0.087096	368.927
326.8000	-0.179819	368.626
326.7000	-0.175384	368.317
326.6000	-0.159578	368.147
326.5000	-0.183549	368.042
326.4000	-0.162601	367.773
326.3000	-0.148926	367.493
326.2000	-0.276284	367.218
326.1000	-0.366653	367.055
326.0000	-0.259979	366.761
325.9000	-0.186074	366.466
325.8000	-0.174042	366.166
325.7000	-0.176842	365.903
325.6000	-0.133457	365.772
325.5000	-0.070646	365.498
325.4000	-0.055671	365.211
325.3000	-0.0884083	364.911
325.2000	-0.128526	364.782
325.1000	-0.192555	364.729
325.0000	-0.146083	364.494
324.9000	-0.238897	364.223
324.8000	-0.347072	363.945
324.7000	-0.414077	363.824
324.6000	-0.413902	363.783
324.5000	-0.346088	363.537
324.4000	-0.351919	363.254
324.3000	-0.305478	362.984
324.2000	-0.324376	362.838
324.1000	-0.347332	362.549
324.0000	-0.337245	362.247
323.9000	-0.378522	361.924
323.8000	-0.33888	361.65
323.7000	-0.414926	361.513
323.6000	-0.485999	361.259
323.5000	-0.498482	360.984
323.4000	-0.502724	360.727
323.3000	-0.499069	360.622
323.2000	-0.446233	360.589
323.1000	-0.413639	360.384
323.0000	-0.442324	360.133
322.9000	-0.383344	359.867
322.8000	-0.228783	359.738
322.7000	-0.156089	359.485
322.6000	-0.164281	359.191
322.5000	-0.171204	358.898
322.4000	-0.168566	358.605
322.3000	-0.150973	358.427
322.2000	-0.0621987	358.108
322.1000	-0.126943	357.769
322.0000	-0.21785	357.461
321.9000	-0.345059	357.29
321.8000	-0.413695	357.026
321.7000	-0.489658	356.748
321.6000	-0.489669	356.462
321.5000	-0.535912	356.204
321.4000	-0.52981	356.109
321.3000	-0.557616	355.964
321.2000	-0.623847	355.796
321.1000	-0.61814	355.61
321.0000	-0.573402	355.558
320.9000	-0.477098	355.427
320.8000	-0.362636	355.297
320.7000	-0.284587	355.163
320.6000	-0.36116	355.012
320.5000	-0.45617	354.955
320.4000	-0.469316	354.767
320.3000	-0.465531	354.573
320.2000	-0.452835	354.394
320.1000	-0.48535	354.312
320.0000	-0.517901	354.159
319.9000	-0.622799	353.986
319.8000	-0.605022	353.796
319.7000	-0.469833	353.6
319.6000	-0.300546	353.409
319.5000	-0.229621	353.278
319.4000	-0.201649	353.128
319.3000	-0.255359	352.928
319.2000	-0.293864	352.815
319.1000	-0.250633	352.632
319.0000	-0.244072	352.449
318.9000	-0.327473	352.229
318.8000	-0.425781	352.091
318.7000	-0.519991	351.87
318.6000	-0.549278	351.644
318.5000	-0.55236	351.434
318.4000	-0.612805	351.227
318.3000	-0.743389	351.012
318.2000	-0.737352	350.843
318.1000	-0.748457	350.695
318.0000	-0.74577	350.52
317.9000	-0.794306	350.435
317.8000	-0.850497	350.32
317.7000	-0.874889	350.206
317.6000	-0.758869	350.046
317.5000	-0.636001	349.945
317.4000	-0.594329	349.784
317.3000	-0.555772	349.615
317.2000	-0.539519	349.42
317.1000	-0.532611	349.224
317.0000	-0.476931	348.978
316.9000	-0.461475	348.752
316.8000	-0.574528	348.544
316.7000	-0.641749	348.348
316.6000	-0.644378	348.148
316.5000	-0.683508	347.975
316.4000	-0.613923	347.805
316.3000	-0.575182	347.647
316.2000	-0.571793	347.498
316.1000	-0.566437	347.386
316.0000	-0.455209	347.288
315.9000	-0.372722	347.149
315.8000	-0.323266	347.055
315.7000	-0.301226	346.903
315.6000	-0.332477	346.774
315.5000	-0.335782	346.599
315.4000	-0.269276	346.471
315.3000	-0.303018	346.258
315.2000	-0.388824	346.037
315.1000	-0.426777	345.834
315.0000	-0.495131	345.642
314.9000	-0.556366	345.473
314.8000	-0.597993	345.326
314.7000	-0.657568	345.171
314.6000	-0.751068	345.029
314.5000	-0.760389	344.901
314.4000	-0.681242	344.812
314.3000	-0.630563	344.684
314.2000	-0.55241	344.558
314.1000	-0.514627	344.399
314.0000	-0.448183	344.246
313.9000	-0.363502	344.075
313.8000	-0.25199	343.917
313.7000	-0.236128	343.703
313.6000	-0.289514	343.501
313.5000	-0.317262	343.32
313.4000	-0.292576	343.155
313.3000	-0.298411	342.999
313.2000	-0.293614	342.866
313.1000	-0.334313	342.715
313.0000	-0.352253	342.578
312.9000	-0.371553	342.464
312.8000	-0.346395	342.384
312.7000	-0.2549	342.26
312.6000	-0.246739	342.134
312.5000	-0.272851	341.978
312.4000	-0.240187	341.83
312.3000	-0.32848	341.648
312.2000	-0.369739	341.483
312.1000	-0.419243	341.267
312.0000	-0.448775	341.059
311.9000	-0.527671	340.859
311.8000	-0.676335	340.652
311.7000	-0.78983	340.484
311.6000	-0.851353	340.277
311.5000	-0.870656	340.119
311.4000	-0.895088	339.958
311.3000	-0.888046	339.855
311.2000	-0.870347	339.732
311.1000	-0.839409	339.636
311.0000	-0.784255	339.537
310.9000	-0.72573	339.45
310.8000	-0.739013	339.342
310.7000	-0.764443	339.257
310.6000	-0.804898	339.136
310.5000	-0.820705	339.024
310.4000	-0.768655	338.92
310.3000	-0.748923	338.833
310.2000	-0.724635	338.753
310.1000	-0.664852	338.679
310.0000	-0.596073	338.592
309.9000	-0.52774	338.52
309.8000	-0.470055	338.467
309.7000	-0.389653	338.364
309.6000	-0.33562	338.285
309.5000	-0.370456	338.179
309.4000	-0.373404	338.087
309.3000	-0.431684	337.933
309.2000	-0.506986	337.817
309.1000	-0.590026	337.672
309.0000	-0.579613	337.539
308.9000	-0.557384	337.417
308.8000	-0.607668	337.313
308.7000	-0.650188	337.211
308.6000	-0.629882	337.121
308.5000	-0.572856	337.018
308.4000	-0.524479	336.919
308.3000	-0.453456	336.858
308.2000	-0.415729	336.741
308.1000	-0.411001	336.656
308.0000	-0.400014	336.563
307.9000	-0.380093	336.481
307.8000	-0.378527	336.337
307.7000	-0.441061	336.23
307.6000	-0.466588	336.12
307.5000	-0.564799	335.951
307.4000	-0.59864	335.831
307.3000	-0.702819	335.717
307.2000	-0.733118	335.622
307.1000	-0.69234	335.476
307.0000	-0.673227	335.374
306.9000	-0.647655	335.286
306.8000	-0.586734	335.223
306.7000	-0.536473	335.144
306.6000	-0.484015	335.062
306.5000	-0.408318	334.992
306.4000	-0.362814	334.861
306.3000	-0.407228	334.767
306.2000	-0.495377	334.66
306.1000	-0.561827	334.557
306.0000	-0.631792	334.405
305.9000	-0.696815	334.303
305.8000	-0.70954	334.234
305.7000	-0.67686	334.107
305.6000	-0.692652	334.022
305.5000	-0.778951	333.95
305.4000	-0.819888	333.903
305.3000	-0.762084	333.804
305.2000	-0.781828	333.734
305.1000	-0.77156	333.667
305.0000	-0.749586	333.54
304.9000	-0.700794	333.457
304.8000	-0.68388	333.367
304.7000	-0.650937	333.287
304.6000	-0.605028	333.158
304.5000	-0.59317	333.058
304.4000	-0.599984	332.985
304.3000	-0.575236	332.867
304.2000	-0.56221	332.798
304.1000	-0.623855	332.742
304.0000	-0.658418	332.706
303.9000	-0.664361	332.619
303.8000	-0.641303	332.55
303.7000	-0.61257	332.509
303.6000	-0.565699	332.413
303.5000	-0.548163	332.352
303.4000	-0.489958	332.282
303.3000	-0.495163	332.176
303.2000	-0.508188	332.072
303.1000	-0.556746	331.991
303.0000	-0.633031	331.939
302.9000	-0.696267	331.84
302.8000	-0.751444	331.767
302.7000	-0.788922	331.714
302.6000	-0.861942	331.626
302.5000	-0.907991	331.573
302.4000	-0.946177	331.518
302.3000	-0.888253	331.426
302.2000	-0.794053	331.337
302.1000	-0.735798	331.256
302.0000	-0.727421	331.203
301.9000	-0.716505	331.117
301.8000	-0.721655	331.049
301.7000	-0.712983	330.998
301.6000	-0.685842	330.912
301.5000	-0.651416	330.865
301.4000	-0.684852	330.819
301.3000	-0.722241	330.744
301.2000	-0.720474	330.678
301.1000	-0.719831	330.62
301.0000	-0.746401	330.59
300.9000	-0.705555	330.521
300.8000	-0.724578	330.45
300.7000	-0.77886	330.394
300.6000	-0.792518	330.316
300.5000	-0.750703	330.26
300.4000	-0.686371	330.22
300.3000	-0.634431	330.149
300.2000	-0.598629	330.082
300.1000	-0.580719	330.026
300.0000	-0.581228	329.965
299.9000	-0.554793	329.915
299.8000	-0.572997	329.863
299.7000	-0.594093	329.798
299.6000	-0.611192	329.737
299.5000	-0.608808	329.677
299.4000	-0.671704	329.628
299.3000	-0.697803	329.558
299.2000	-0.650759	329.506
299.1000	-0.629934	329.467
299.0000	-0.636835	329.402
298.9000	-0.663825	329.351
298.8000	-0.724741	329.312
298.7000	-0.744763	329.255
298.6000	-0.687881	329.21
298.5000	-0.670505	329.166
298.4000	-0.705199	329.108
298.3000	-0.673756	329.056
298.2000	-0.634912	329.006
298.1000	-0.610713	328.95
298.0000	-0.533595	328.9
297.9000	-0.562342	328.855
297.8000	-0.63887	328.788
297.7000	-0.662967	328.737
297.6000	-0.656558	328.7
297.5000	-0.707051	328.641
297.4000	-0.735104	328.597
297.3000	-0.752737	328.561
297.2000	-0.738002	328.505
297.1000	-0.725797	328.463
297.0000	-0.681018	328.419
296.9000	-0.656787	328.354
296.8000	-0.609665	328.304
296.7000	-0.597988	328.26
296.6000	-0.564495	328.23
296.5000	-0.522414	328.186
296.4000	-0.483334	328.149
296.3000	-0.441317	328.121
296.2000	-0.39585	328.085
296.1000	-0.323209	328.056
296.0000	-0.345843	328.029
295.9000	-0.383281	327.986
295.8000	-0.417254	327.923
295.7000	-0.453418	327.88
295.6000	-0.513123	327.837
295.5000	-0.541582	327.773
295.4000	-0.547346	327.705
295.3000	-0.63168	327.665
295.2000	-0.686095	327.607
295.1000	-0.654103	327.549
295.0000	-0.664258	327.522
294.9000	-0.722349	327.473
294.8000	-0.722189	327.416
294.7000	-0.733475	327.386
294.6000	-0.818294	327.353
294.5000	-0.824215	327.302
294.4000	-0.798934	327.269
294.3000	-0.81346	327.235
294.2000	-0.846678	327.182
294.1000	-0.822787	327.146
294.0000	-0.804017	327.118
293.9000	-0.811512	327.072
293.8000	-0.80989	327.044
293.7000	-0.77452	327.019
293.6000	-0.75658	326.971
293.5000	-0.762948	326.918
293.4000	-0.727933	326.892
293.3000	-0.694112	326.848
293.2000	-0.688744	326.795
293.1000	-0.668699	326.767
293.0000	-0.663205	326.721
292.9000	-0.635463	326.67
292.8000	-0.649017	326.645
292.7000	-0.569398	326.626
292.6000	-0.559755	326.586
292.5000	-0.562882	326.539
292.4000	-0.512155	326.519
292.3000	-0.541529	326.48
292.2000	-0.516908	326.433
292.1000	-0.532646	326.409
292.0000	-0.555486	326.367
291.9000	-0.613351	326.312
291.8000	-0.618608	326.261
291.7000	-0.58792	326.235
291.6000	-0.582345	326.187
291.5000	-0.591757	326.131
291.4000	-0.654622	326.097
291.3000	-0.726218	326.043
291.2000	-0.686387	325.98
291.1000	-0.708751	325.915
291.0000	-0.772212	325.865
290.9000	-0.801661	325.791
290.8000	-0.83205	325.698
290.7000	-0.908392	325.596
290.6000	-0.8647	325.489
290.5000	-0.810873	325.362
290.4000	-0.749079	325.23
290.3000	-0.718937	325.116
290.2000	-0.699601	324.986
290.1000	-0.694641	324.853
290.0000	-0.72053	324.738
289.9000	-0.695345	324.668
289.8000	-0.667073	324.609
289.7000	-0.679407	324.574
289.6000	-0.746363	324.57
289.5000	-0.786597	324.605
289.4000	-0.831523	324.657
289.3000	-0.824416	324.735
289.2000	-0.785148	324.828
289.1000	-0.7693	324.935
289.0000	-0.769829	325.03
288.9000	-0.779456	325.12
288.8000	-0.770985	325.196
288.7000	-0.758998	325.262
288.6000	-0.768756	325.306
288.5000	-0.735492	325.337
288.4000	-0.749892	325.35
288.3000	-0.7457	325.356
288.2000	-0.720255	325.355
288.1000	-0.67808	325.346
288.0000	-0.691988	325.331
287.9000	-0.683122	325.302
287.8000	-0.660065	325.284
287.7000	-0.732997	325.264
287.6000	-0.76289	325.243
287.5000	-0.785025	325.213
287.4000	-0.844929	325.191
287.3000	-0.897892	325.167
287.2000	-0.950248	325.147
287.1000	-0.953939	325.127
287.0000	-0.985172	325.09
286.9000	-0.962623	325.07
286.8000	-0.962247	325.053
286.7000	-0.960275	325.038
286.6000	-0.939192	325.006
286.5000	-0.938713	324.993
286.4000	-0.893549	324.988
286.3000	-0.933877	324.981
286.2000	-0.993501	324.977
286.1000	-0.993658	324.959
286.0000	-0.973327	324.956
285.9000	-0.932352	324.951
285.8000	-0.916773	324.95
285.7000	-0.897948	324.933
285.6000	-0.841957	324.908
285.5000	-0.79558	324.905
285.4000	-0.745626	324.907
285.3000	-0.695554	324.908
285.2000	-0.670803	324.894
285.1000	-0.685571	324.877
285.0000	-0.689775	324.88
284.9000	-0.719022	324.879
284.8000	-0.794378	324.881
284.7000	-0.823649	324.87
284.6000	-0.813969	324.854
284.5000	-0.79484	324.861
284.4000	-0.824955	324.871
284.3000	-0.822816	324.884
284.2000	-0.798377	324.878
284.1000	-0.722441	324.871
284.0000	-0.646205	324.86
283.9000	-0.584529	324.867
283.8000	-0.592372	324.878
283.7000	-0.638147	324.874
283.6000	-0.678992	324.862
283.5000	-0.703737	324.85
283.4000	-0.695275	324.84
283.3000	-0.746249	324.85
283.2000	-0.754454	324.863
283.1000	-0.802166	324.859
283.0000	-0.858122	324.844
282.9000	-0.868597	324.827
282.8000	-0.814774	324.814
282.7000	-0.771363	324.82
282.6000	-0.808531	324.827
282.5000	-0.84994	324.824
282.4000	-0.949412	324.811
282.3000	-0.973247	324.804
282.2000	-0.995695	324.802
282.1000	-0.957229	324.822
282.0000	-0.922255	324.84
281.9000	-0.974204	324.844
281.8000	-0.994916	324.842
281.7000	-0.981745	324.838
281.6000	-0.947626	324.838
281.5000	-0.945188	324.839
281.4000	-0.902865	324.859
281.3000	-0.81949	324.869
281.2000	-0.840028	324.867
281.1000	-0.821348	324.861
281.0000	-0.759703	324.86
280.9000	-0.745137	324.857
280.8000	-0.737588	324.852
280.7000	-0.696926	324.849
280.6000	-0.666169	324.849
280.5000	-0.689757	324.841
280.4000	-0.700167	324.829
280.3000	-0.673593	324.822
280.2000	-0.633662	324.81
280.1000	-0.546765	324.804
280.0000	-0.49405	324.794
279.9000	-0.477467	324.785
279.8000	-0.499152	324.764
279.7000	-0.541319	324.757
279.6000	-0.570261	324.752
279.5000	-0.569133	324.75
279.4000	-0.612187	324.749
