TITLE	ACE2_D2_0.6uM
DATA TYPE	
ORIGIN	JASCO
OWNER	
DATE	24/02/26
TIME	16:52:33
SPECTROMETER/DATA SYSTEM	
LOCALE	1033
RESOLUTION	
DELTAX	-0.1
XUNITS	NANOMETERS
YUNITS	CD [mdeg]
Y2UNITS	HT [V]
FIRSTX	  350.0000
LASTX	  190.0000
NPOINTS	    1601
FIRSTY	     2.00000
MAXY	     2.33258
MINY	   -15.75833
XYDATA
350.0000	2	468.99
349.9000	2.20929	468.404
349.8000	2.14806	467.532
349.7000	2.33258	466.659
349.6000	2.33144	466.022
349.5000	2.27947	465.458
349.4000	2.01107	464.579
349.3000	1.90368	463.955
349.2000	1.91932	463.427
349.1000	2.03411	462.625
349.0000	2.1826	462.037
348.9000	2.05758	461.502
348.8000	1.95924	460.656
348.7000	1.66643	459.791
348.6000	1.78352	459.178
348.5000	2.14547	458.658
348.4000	2.21864	457.815
348.3000	2.05507	457.173
348.2000	1.63017	456.589
348.1000	1.64767	455.739
348.0000	1.38196	455.109
347.9000	1.42963	454.574
347.8000	1.64838	453.774
347.7000	1.38133	452.953
347.6000	1.10505	452.364
347.5000	0.869618	451.867
347.4000	0.790528	451.076
347.3000	0.597606	450.48
347.2000	0.603071	449.971
347.1000	0.631298	449.21
347.0000	0.565112	448.642
346.9000	0.539075	448.145
346.8000	0.570478	447.381
346.7000	0.70534	446.605
346.6000	0.960517	446.037
346.5000	1.05687	445.313
346.4000	1.20388	444.579
346.3000	1.32155	444.021
346.2000	1.43806	443.284
346.1000	1.537	442.536
346.0000	1.77907	442
345.9000	1.88859	441.537
345.8000	1.87279	440.804
345.7000	1.71136	440.252
345.6000	1.60429	439.777
345.5000	1.42117	439.087
345.4000	1.29651	438.591
345.3000	1.04652	438.164
345.2000	1.02739	437.481
345.1000	0.969354	436.782
345.0000	0.974264	436.273
344.9000	0.998731	435.607
344.8000	0.906521	434.919
344.7000	0.970513	434.383
344.6000	1.13218	433.715
344.5000	1.2204	433.039
344.4000	1.2319	432.544
344.3000	1.22799	431.89
344.2000	1.24339	431.225
344.1000	1.21192	430.736
344.0000	1.43444	430.114
343.9000	1.66992	429.484
343.8000	1.75897	429.006
343.7000	1.75935	428.579
343.6000	1.6968	427.941
343.5000	1.6934	427.482
343.4000	1.52246	427.09
343.3000	1.37957	426.457
343.2000	1.1849	425.988
343.1000	0.893952	425.578
343.0000	0.753459	424.992
342.9000	0.743144	424.4
342.8000	0.794075	423.958
342.7000	0.884195	423.355
342.6000	0.977442	422.746
342.5000	1.04517	422.304
342.4000	1.13498	421.758
342.3000	1.34079	421.214
342.2000	1.37314	420.792
342.1000	1.24836	420.241
342.0000	1.22208	419.688
341.9000	1.1476	419.299
341.8000	0.962808	418.775
341.7000	0.96708	418.246
341.6000	0.903674	417.846
341.5000	0.824156	417.303
341.4000	0.78752	416.749
341.3000	0.853686	416.334
341.2000	0.936457	415.79
341.1000	1.06621	415.233
341.0000	1.23059	414.821
340.9000	1.18713	414.276
340.8000	1.22833	413.727
340.7000	1.27985	413.319
340.6000	1.33377	412.819
340.5000	1.29104	412.31
340.4000	1.29109	411.935
340.3000	1.16168	411.426
340.2000	0.920032	410.907
340.1000	0.786266	410.53
340.0000	0.773306	410.057
339.9000	0.798229	409.577
339.8000	0.745039	409.208
339.7000	0.755347	408.73
339.6000	0.659382	408.235
339.5000	0.539033	407.876
339.4000	0.585469	407.414
339.3000	0.698169	406.938
339.2000	0.670628	406.415
339.1000	0.596313	405.946
339.0000	0.521779	405.47
338.9000	0.450317	404.95
338.8000	0.483965	404.488
338.7000	0.506048	404.021
338.6000	0.477683	403.514
338.5000	0.480638	403.067
338.4000	0.399319	402.737
338.3000	0.411814	402.32
338.2000	0.408847	401.894
338.1000	0.35732	401.587
338.0000	0.245118	401.172
337.9000	0.195198	400.749
337.8000	0.181186	400.445
337.7000	0.0477004	400.038
337.6000	0.0147991	399.624
337.5000	-0.0723542	399.31
337.4000	-0.153627	398.895
337.3000	-0.0567642	398.473
337.2000	0.185991	398.018
337.1000	0.326255	397.615
337.0000	0.433882	397.205
336.9000	0.500866	396.774
336.8000	0.522864	396.396
336.7000	0.58471	396.014
336.6000	0.638024	395.588
336.5000	0.728324	395.21
336.4000	0.623509	394.935
336.3000	0.539732	394.566
336.2000	0.453082	394.187
336.1000	0.439334	393.904
336.0000	0.420153	393.533
335.9000	0.468232	393.149
335.8000	0.492416	392.729
335.7000	0.422828	392.355
335.6000	0.407794	391.978
335.5000	0.408425	391.579
335.4000	0.556199	391.235
335.3000	0.62799	390.888
335.2000	0.717879	390.512
335.1000	0.704332	390.175
335.0000	0.732742	389.947
334.9000	0.757151	389.626
334.8000	0.771353	389.292
334.7000	0.576281	388.915
334.6000	0.44376	388.58
334.5000	0.245244	388.233
334.4000	0.174866	387.85
334.3000	0.0839571	387.506
334.2000	-0.0533569	387.154
334.1000	-0.0393607	386.781
334.0000	-0.113336	386.45
333.9000	-0.12426	386.219
333.8000	-0.0658313	385.915
333.7000	-0.0159607	385.601
333.6000	0.0235288	385.245
333.5000	0.0641811	384.937
333.4000	0.179255	384.623
333.3000	0.19394	384.278
333.2000	0.21118	383.976
333.1000	0.278142	383.665
333.0000	0.390238	383.338
332.9000	0.241529	383.036
332.8000	0.147205	382.698
332.7000	0.106565	382.403
332.6000	0.129214	382.104
332.5000	0.0909643	381.781
332.4000	0.122037	381.502
332.3000	0.124097	381.222
332.2000	0.0429412	380.899
332.1000	0.0675279	380.607
332.0000	0.144137	380.289
331.9000	0.135255	380.015
331.8000	0.0810822	379.735
331.7000	0.0199655	379.429
331.6000	-0.0649296	379.149
331.5000	-0.128323	378.741
331.4000	-0.194567	378.413
331.3000	-0.215601	378.127
331.2000	-0.195799	377.829
331.1000	-0.0968683	377.572
331.0000	-0.0579372	377.308
330.9000	-0.0702116	377.018
330.8000	0.00216058	376.759
330.7000	0.0258777	376.479
330.6000	0.105532	376.239
330.5000	0.19532	375.997
330.4000	0.171815	375.715
330.3000	0.0230539	375.459
330.2000	-0.063841	375.106
330.1000	-0.139027	374.823
330.0000	-0.150289	374.575
329.9000	-0.155819	374.285
329.8000	-0.234728	374.024
329.7000	-0.371585	373.678
329.6000	-0.46864	373.411
329.5000	-0.368815	373.187
329.4000	-0.36723	372.904
329.3000	-0.360206	372.648
329.2000	-0.360073	372.307
329.1000	-0.411568	372.047
329.0000	-0.457053	371.829
328.9000	-0.456943	371.57
328.8000	-0.435934	371.334
328.7000	-0.426756	371.045
328.6000	-0.406048	370.845
328.5000	-0.293606	370.69
328.4000	-0.229166	370.442
328.3000	-0.213154	370.212
328.2000	-0.228023	369.965
328.1000	-0.262288	369.793
328.0000	-0.279452	369.654
327.9000	-0.286661	369.368
327.8000	-0.388143	369.082
327.7000	-0.551854	368.803
327.6000	-0.679437	368.64
327.5000	-0.676351	368.536
327.4000	-0.652884	368.248
327.3000	-0.64917	367.945
327.2000	-0.650775	367.634
327.1000	-0.747907	367.454
327.0000	-0.809511	367.342
326.9000	-0.757623	367.073
326.8000	-0.733019	366.776
326.7000	-0.73645	366.479
326.6000	-0.754748	366.325
326.5000	-0.723063	366.246
326.4000	-0.669093	365.983
326.3000	-0.544824	365.708
326.2000	-0.399577	365.454
326.1000	-0.282519	365.314
326.0000	-0.195636	365.028
325.9000	-0.19326	364.735
325.8000	-0.203835	364.435
325.7000	-0.225117	364.167
325.6000	-0.286801	364.034
325.5000	-0.304433	363.766
325.4000	-0.391806	363.473
325.3000	-0.500529	363.162
325.2000	-0.575705	363.046
325.1000	-0.678474	363.006
325.0000	-0.695634	362.776
324.9000	-0.695507	362.515
324.8000	-0.697684	362.262
324.7000	-0.684504	362.165
324.6000	-0.737772	362.141
324.5000	-0.829994	361.898
324.4000	-0.924249	361.612
324.3000	-0.9032	361.333
324.2000	-0.924644	361.186
324.1000	-0.852552	360.911
324.0000	-0.748057	360.616
323.9000	-0.713354	360.292
323.8000	-0.675657	359.993
323.7000	-0.639057	359.846
323.6000	-0.624419	359.603
323.5000	-0.59414	359.333
323.4000	-0.548908	359.083
323.3000	-0.562207	358.982
323.2000	-0.657901	358.945
323.1000	-0.80957	358.752
323.0000	-0.908133	358.533
322.9000	-0.958136	358.285
322.8000	-0.9897	358.155
322.7000	-1.03273	357.909
322.6000	-1.11794	357.624
322.5000	-1.19805	357.322
322.4000	-1.22751	357.02
322.3000	-1.17835	356.822
322.2000	-1.0875	356.488
322.1000	-1.06857	356.151
322.0000	-0.968069	355.839
321.9000	-0.939105	355.655
321.8000	-0.985469	355.415
321.7000	-0.99654	355.175
321.6000	-1.09656	354.93
321.5000	-1.23853	354.699
321.4000	-1.38156	354.617
321.3000	-1.52364	354.503
321.2000	-1.70577	354.377
321.1000	-1.82875	354.217
321.0000	-1.84432	354.158
320.9000	-1.86849	354.027
320.8000	-1.8561	353.888
320.7000	-1.7391	353.733
320.6000	-1.59321	353.57
320.5000	-1.45709	353.484
320.4000	-1.32982	353.288
320.3000	-1.18515	353.105
320.2000	-1.14949	352.914
320.1000	-1.10615	352.809
320.0000	-1.05556	352.633
319.9000	-1.04189	352.465
319.8000	-1.07003	352.271
319.7000	-1.14945	352.068
319.6000	-1.20521	351.87
319.5000	-1.32757	351.717
319.4000	-1.38978	351.569
319.3000	-1.4638	351.376
319.2000	-1.49398	351.26
319.1000	-1.55361	351.073
319.0000	-1.59603	350.901
318.9000	-1.61843	350.699
318.8000	-1.61149	350.565
318.7000	-1.60087	350.348
318.6000	-1.54118	350.125
318.5000	-1.61502	349.917
318.4000	-1.6882	349.715
318.3000	-1.71111	349.522
318.2000	-1.73173	349.367
318.1000	-1.7177	349.237
318.0000	-1.66096	349.068
317.9000	-1.67481	348.976
317.8000	-1.71536	348.862
317.7000	-1.6854	348.758
317.6000	-1.61386	348.591
317.5000	-1.62856	348.469
317.4000	-1.64728	348.296
317.3000	-1.62355	348.119
317.2000	-1.66008	347.921
317.1000	-1.66704	347.737
317.0000	-1.68666	347.504
316.9000	-1.69837	347.286
316.8000	-1.82847	347.079
316.7000	-1.92325	346.889
316.6000	-1.96924	346.718
316.5000	-1.98018	346.571
316.4000	-1.98393	346.397
316.3000	-2.00428	346.232
316.2000	-2.04095	346.091
316.1000	-2.08708	345.986
316.0000	-2.0574	345.906
315.9000	-2.01513	345.767
315.8000	-1.99699	345.652
315.7000	-1.99031	345.489
315.6000	-2.05193	345.372
315.5000	-2.15933	345.206
315.4000	-2.23089	345.074
315.3000	-2.25314	344.859
315.2000	-2.23536	344.637
315.1000	-2.21071	344.44
315.0000	-2.24071	344.263
314.9000	-2.28623	344.104
314.8000	-2.29309	343.961
314.7000	-2.28058	343.809
314.6000	-2.18123	343.682
314.5000	-2.0378	343.578
314.4000	-1.98591	343.505
314.3000	-2.05547	343.377
314.2000	-2.08906	343.256
314.1000	-2.04463	343.101
314.0000	-2.03374	342.949
313.9000	-1.94762	342.782
313.8000	-1.98888	342.624
313.7000	-2.0864	342.409
313.6000	-2.17042	342.202
313.5000	-2.15597	342.009
313.4000	-2.10372	341.836
313.3000	-2.07787	341.683
313.2000	-2.17649	341.54
313.1000	-2.29856	341.381
313.0000	-2.35168	341.241
312.9000	-2.36897	341.124
312.8000	-2.32995	341.035
312.7000	-2.31647	340.905
312.6000	-2.31959	340.782
312.5000	-2.30658	340.633
312.4000	-2.30491	340.481
312.3000	-2.33781	340.297
312.2000	-2.36896	340.126
312.1000	-2.41384	339.908
312.0000	-2.47536	339.698
311.9000	-2.55024	339.499
311.8000	-2.60655	339.305
311.7000	-2.61325	339.142
311.6000	-2.63463	338.934
311.5000	-2.58147	338.785
311.4000	-2.5733	338.642
311.3000	-2.58861	338.552
311.2000	-2.54214	338.433
311.1000	-2.50878	338.344
311.0000	-2.46313	338.252
310.9000	-2.41829	338.167
310.8000	-2.42029	338.063
310.7000	-2.38164	337.98
310.6000	-2.37506	337.861
310.5000	-2.37505	337.748
310.4000	-2.4243	337.64
310.3000	-2.3991	337.552
310.2000	-2.45229	337.471
310.1000	-2.56521	337.395
310.0000	-2.59944	337.308
309.9000	-2.70201	337.238
309.8000	-2.7852	337.18
309.7000	-2.80955	337.07
309.6000	-2.81003	336.987
309.5000	-2.79436	336.89
309.4000	-2.82004	336.799
309.3000	-2.78073	336.643
309.2000	-2.81836	336.523
309.1000	-2.82419	336.377
309.0000	-2.80609	336.244
308.9000	-2.77214	336.119
308.8000	-2.77245	336.01
308.7000	-2.87168	335.917
308.6000	-2.87616	335.835
308.5000	-2.87121	335.734
308.4000	-2.89627	335.646
308.3000	-2.90229	335.59
308.2000	-2.90957	335.472
308.1000	-2.92139	335.386
308.0000	-2.94464	335.309
307.9000	-2.92946	335.235
307.8000	-2.98937	335.073
307.7000	-3.03801	334.955
307.6000	-3.05791	334.839
307.5000	-2.99944	334.669
307.4000	-2.96121	334.551
307.3000	-2.95244	334.452
307.2000	-2.93564	334.363
307.1000	-2.88549	334.21
307.0000	-2.89774	334.112
306.9000	-2.90302	334.039
306.8000	-2.87421	333.987
306.7000	-2.95553	333.913
306.6000	-3.06807	333.834
306.5000	-3.08632	333.762
306.4000	-3.13581	333.627
306.3000	-3.20643	333.535
306.2000	-3.22342	333.436
306.1000	-3.21601	333.342
306.0000	-3.27598	333.199
305.9000	-3.202	333.107
305.8000	-3.0951	333.041
305.7000	-3.07699	332.917
305.6000	-3.03543	332.835
305.5000	-3.00942	332.77
305.4000	-3.02303	332.728
305.3000	-3.03018	332.627
305.2000	-2.98058	332.559
305.1000	-2.98069	332.491
305.0000	-3.003	332.367
304.9000	-2.97181	332.291
304.8000	-2.96553	332.211
304.7000	-3.00374	332.135
304.6000	-2.97254	332.011
304.5000	-2.97266	331.921
304.4000	-2.99427	331.853
304.3000	-3.11784	331.732
304.2000	-3.23022	331.66
304.1000	-3.30777	331.609
304.0000	-3.4493	331.571
303.9000	-3.50353	331.477
303.8000	-3.47838	331.404
303.7000	-3.44541	331.36
303.6000	-3.44376	331.259
303.5000	-3.4252	331.198
303.4000	-3.34058	331.134
303.3000	-3.37901	331.027
303.2000	-3.37816	330.919
303.1000	-3.37359	330.839
303.0000	-3.43819	330.79
302.9000	-3.55398	330.686
302.8000	-3.60367	330.616
302.7000	-3.60235	330.565
302.6000	-3.59789	330.477
302.5000	-3.58413	330.428
302.4000	-3.60911	330.379
302.3000	-3.64575	330.29
302.2000	-3.65549	330.206
302.1000	-3.63177	330.128
302.0000	-3.6402	330.074
301.9000	-3.65635	329.987
301.8000	-3.68534	329.918
301.7000	-3.77755	329.863
301.6000	-3.78318	329.776
301.5000	-3.7881	329.728
301.4000	-3.76981	329.681
301.3000	-3.7629	329.61
301.2000	-3.75536	329.547
301.1000	-3.81912	329.489
301.0000	-3.80405	329.461
300.9000	-3.72458	329.398
300.8000	-3.6551	329.329
300.7000	-3.64967	329.274
300.6000	-3.6514	329.199
300.5000	-3.669	329.139
300.4000	-3.69985	329.094
300.3000	-3.63542	329.022
300.2000	-3.6265	328.951
300.1000	-3.71564	328.895
300.0000	-3.71556	328.836
299.9000	-3.69882	328.787
299.8000	-3.73443	328.74
299.7000	-3.79878	328.678
299.6000	-3.85185	328.622
299.5000	-3.90908	328.566
299.4000	-3.96819	328.524
299.3000	-3.94957	328.46
299.2000	-4.00818	328.409
299.1000	-4.07711	328.376
299.0000	-4.08207	328.316
298.9000	-4.04608	328.272
298.8000	-3.96589	328.245
298.7000	-3.92959	328.194
298.6000	-3.93641	328.15
298.5000	-3.96973	328.108
298.4000	-3.98275	328.053
298.3000	-3.97383	328.002
298.2000	-3.93935	327.954
298.1000	-3.94114	327.901
298.0000	-4.01434	327.849
297.9000	-4.07856	327.806
297.8000	-4.10063	327.746
297.7000	-4.12491	327.697
297.6000	-4.1084	327.665
297.5000	-4.10186	327.61
297.4000	-4.20488	327.567
297.3000	-4.30586	327.535
297.2000	-4.31884	327.48
297.1000	-4.30264	327.436
297.0000	-4.3158	327.395
296.9000	-4.27988	327.338
296.8000	-4.29917	327.292
296.7000	-4.316	327.256
296.6000	-4.29448	327.23
296.5000	-4.23538	327.186
296.4000	-4.21829	327.155
296.3000	-4.22278	327.135
296.2000	-4.2306	327.1
296.1000	-4.21583	327.074
296.0000	-4.1881	327.056
295.9000	-4.20319	327.02
295.8000	-4.2377	326.965
295.7000	-4.23954	326.936
295.6000	-4.26113	326.902
295.5000	-4.28449	326.847
295.4000	-4.26158	326.787
295.3000	-4.24527	326.753
295.2000	-4.31214	326.704
295.1000	-4.31196	326.646
295.0000	-4.3554	326.616
294.9000	-4.36284	326.572
294.8000	-4.34305	326.517
294.7000	-4.32118	326.488
294.6000	-4.30273	326.467
294.5000	-4.33526	326.428
294.4000	-4.37014	326.399
294.3000	-4.39967	326.378
294.2000	-4.42256	326.334
294.1000	-4.43263	326.305
294.0000	-4.47426	326.288
293.9000	-4.47476	326.249
293.8000	-4.49256	326.222
293.7000	-4.48073	326.203
293.6000	-4.4656	326.16
293.5000	-4.35747	326.113
293.4000	-4.3406	326.096
293.3000	-4.34924	326.058
293.2000	-4.37481	326.009
293.1000	-4.41086	325.989
293.0000	-4.48331	325.949
292.9000	-4.54558	325.907
292.8000	-4.55668	325.895
292.7000	-4.60751	325.876
292.6000	-4.64276	325.839
292.5000	-4.63385	325.792
292.4000	-4.64076	325.769
292.3000	-4.66227	325.73
292.2000	-4.64771	325.686
292.1000	-4.59855	325.663
292.0000	-4.58526	325.624
291.9000	-4.65405	325.574
291.8000	-4.70143	325.537
291.7000	-4.69261	325.526
291.6000	-4.65975	325.495
291.5000	-4.63859	325.456
291.4000	-4.61986	325.44
291.3000	-4.6666	325.396
291.2000	-4.75861	325.336
291.1000	-4.78532	325.272
291.0000	-4.82706	325.221
290.9000	-4.82986	325.149
290.8000	-4.81683	325.06
290.7000	-4.80841	324.966
290.6000	-4.81353	324.862
290.5000	-4.82476	324.737
290.4000	-4.79761	324.613
290.3000	-4.76345	324.513
290.2000	-4.71799	324.391
290.1000	-4.69563	324.264
290.0000	-4.73389	324.153
289.9000	-4.796	324.083
289.8000	-4.81388	324.029
289.7000	-4.84061	323.996
289.6000	-4.87093	324.008
289.5000	-4.90163	324.053
289.4000	-4.903	324.117
289.3000	-4.93578	324.206
289.2000	-5.01301	324.307
289.1000	-5.05673	324.42
289.0000	-5.10979	324.523
288.9000	-5.15954	324.617
288.8000	-5.19865	324.7
288.7000	-5.2235	324.764
288.6000	-5.31399	324.797
288.5000	-5.33941	324.823
288.4000	-5.27137	324.833
288.3000	-5.26642	324.833
288.2000	-5.22202	324.826
288.1000	-5.15301	324.81
288.0000	-5.06463	324.791
287.9000	-5.07942	324.75
287.8000	-5.06745	324.733
287.7000	-5.05339	324.718
287.6000	-5.08823	324.7
287.5000	-5.11115	324.679
287.4000	-5.10012	324.671
287.3000	-5.18187	324.654
287.2000	-5.24757	324.641
287.1000	-5.24031	324.629
287.0000	-5.20182	324.607
286.9000	-5.20903	324.595
286.8000	-5.25052	324.583
286.7000	-5.25535	324.573
286.6000	-5.24533	324.543
286.5000	-5.19372	324.535
286.4000	-5.1549	324.536
286.3000	-5.14965	324.532
286.2000	-5.17038	324.532
286.1000	-5.22516	324.515
286.0000	-5.23326	324.516
285.9000	-5.28802	324.514
285.8000	-5.32011	324.513
285.7000	-5.34361	324.504
285.6000	-5.3542	324.483
285.5000	-5.35371	324.486
285.4000	-5.34975	324.498
285.3000	-5.29479	324.507
285.2000	-5.22207	324.503
285.1000	-5.1725	324.49
285.0000	-5.13735	324.498
284.9000	-5.11511	324.502
284.8000	-5.13902	324.506
284.7000	-5.15402	324.5
284.6000	-5.14321	324.482
284.5000	-5.19735	324.483
284.4000	-5.30915	324.491
284.3000	-5.38656	324.499
284.2000	-5.4459	324.494
284.1000	-5.54535	324.483
284.0000	-5.56757	324.472
283.9000	-5.61549	324.479
283.8000	-5.66923	324.489
283.7000	-5.65981	324.492
283.6000	-5.58071	324.483
283.5000	-5.52665	324.481
283.4000	-5.49276	324.476
283.3000	-5.47159	324.495
283.2000	-5.4491	324.52
283.1000	-5.4456	324.524
283.0000	-5.49298	324.517
282.9000	-5.57353	324.505
282.8000	-5.61853	324.503
282.7000	-5.63619	324.519
282.6000	-5.66371	324.533
282.5000	-5.67566	324.541
282.4000	-5.69246	324.537
282.3000	-5.75748	324.538
282.2000	-5.80483	324.542
282.1000	-5.81464	324.569
282.0000	-5.83738	324.592
281.9000	-5.8841	324.598
281.8000	-5.9246	324.604
281.7000	-5.97622	324.604
281.6000	-5.98837	324.608
281.5000	-5.98197	324.61
281.4000	-5.92346	324.632
281.3000	-5.85519	324.643
281.2000	-5.80273	324.643
281.1000	-5.77563	324.643
281.0000	-5.76515	324.643
280.9000	-5.73189	324.642
280.8000	-5.64735	324.64
280.7000	-5.64578	324.645
280.6000	-5.65463	324.653
280.5000	-5.69989	324.647
280.4000	-5.75003	324.646
280.3000	-5.74648	324.646
280.2000	-5.76616	324.641
280.1000	-5.78579	324.64
280.0000	-5.84797	324.637
279.9000	-5.87613	324.629
279.8000	-5.8337	324.611
279.7000	-5.83159	324.61
279.6000	-5.81233	324.612
279.5000	-5.82601	324.609
279.4000	-5.81789	324.608
279.3000	-5.79353	324.604
279.2000	-5.73362	324.604
279.1000	-5.72564	324.606
279.0000	-5.80218	324.609
278.9000	-5.84051	324.603
278.8000	-5.8785	324.608
278.7000	-5.88877	324.616
278.6000	-5.84007	324.63
278.5000	-5.83462	324.646
278.4000	-5.90454	324.658
278.3000	-5.97562	324.671
278.2000	-5.99227	324.683
278.1000	-5.9779	324.697
278.0000	-5.93095	324.7
277.9000	-5.92194	324.699
277.8000	-5.95417	324.695
277.7000	-5.98172	324.691
277.6000	-5.99177	324.705
277.5000	-5.95893	324.718
277.4000	-5.94318	324.733
277.3000	-5.9566	324.751
277.2000	-5.99509	324.763
277.1000	-6.02846	324.775
277.0000	-6.05474	324.789
276.9000	-6.0523	324.809
276.8000	-6.10984	324.813
