TITLE	cal_0.6uM
DATA TYPE	
ORIGIN	JASCO
OWNER	
DATE	24/04/09
TIME	15:28:44
SPECTROMETER/DATA SYSTEM	
LOCALE	1033
RESOLUTION	
DELTAX	-0.1
XUNITS	NANOMETERS
YUNITS	CD [mdeg]
Y2UNITS	HT [V]
FIRSTX	  350.0000
LASTX	  190.0000
NPOINTS	    1601
FIRSTY	     0.50000
MAXY	     2.15884
MINY	    -1.43063
XYDATA
350.0000	0.5	488.125
349.9000	0.556056	487.493
349.8000	0.171296	486.549
349.7000	0.205144	485.604
349.6000	0.423903	484.929
349.5000	0.692136	484.352
349.4000	0.577484	483.458
349.3000	0.397859	482.818
349.2000	0.376564	482.28
349.1000	0.421042	481.424
349.0000	0.684809	480.794
348.9000	0.794103	480.234
348.8000	0.628463	479.356
348.7000	0.327651	478.461
348.6000	0.378973	477.816
348.5000	0.385502	477.251
348.4000	0.382833	476.344
348.3000	0.223573	475.665
348.2000	0.128101	475.074
348.1000	0.211325	474.198
348.0000	0.262203	473.538
347.9000	0.392624	472.964
347.8000	0.37434	472.099
347.7000	0.400769	471.222
347.6000	0.503227	470.605
347.5000	0.688306	470.093
347.4000	0.641483	469.279
347.3000	0.338882	468.661
347.2000	0.150973	468.135
347.1000	0.123915	467.342
347.0000	0.0376824	466.749
346.9000	-0.137498	466.232
346.8000	-0.282418	465.433
346.7000	-0.399888	464.624
346.6000	-0.464885	464.026
346.5000	-0.439563	463.252
346.4000	-0.337104	462.471
346.3000	-0.359164	461.876
346.2000	-0.428293	461.089
346.1000	-0.292722	460.292
346.0000	-0.210175	459.708
345.9000	-0.278234	459.197
345.8000	-0.123994	458.405
345.7000	0.0141483	457.817
345.6000	0.182973	457.305
345.5000	0.335336	456.559
345.4000	0.517349	456.02
345.3000	0.435058	455.554
345.2000	0.57383	454.829
345.1000	0.801617	454.095
345.0000	0.866258	453.555
344.9000	0.868812	452.862
344.8000	0.783283	452.154
344.7000	0.622478	451.605
344.6000	0.3595	450.903
344.5000	0.286586	450.2
344.4000	0.297826	449.683
344.3000	0.293832	448.98
344.2000	0.303239	448.265
344.1000	0.309469	447.721
344.0000	0.350438	447.045
343.9000	0.385516	446.366
343.8000	0.521062	445.869
343.7000	0.600743	445.431
343.6000	0.502344	444.738
343.5000	0.28253	444.234
343.4000	0.120508	443.816
343.3000	0.191997	443.175
343.2000	0.128986	442.686
343.1000	-0.128178	442.253
343.0000	-0.192732	441.612
342.9000	-0.188167	440.964
342.8000	-0.124088	440.488
342.7000	-0.0369626	439.871
342.6000	0.147946	439.247
342.5000	0.131476	438.781
342.4000	0.027378	438.187
342.3000	0.0570456	437.586
342.2000	0.0723181	437.131
342.1000	0.0862448	436.545
342.0000	0.0327795	435.95
341.9000	-0.000475064	435.524
341.8000	0.04461	434.946
341.7000	0.0367675	434.355
341.6000	-0.0107418	433.912
341.5000	-0.124012	433.363
341.4000	-0.0640724	432.815
341.3000	-0.205698	432.398
341.2000	-0.279772	431.805
341.1000	-0.221485	431.202
341.0000	-0.274056	430.759
340.9000	-0.410405	430.197
340.8000	-0.523766	429.629
340.7000	-0.427793	429.184
340.6000	-0.313151	428.617
340.5000	-0.248214	428.039
340.4000	-0.167201	427.635
340.3000	-0.139592	427.109
340.2000	-0.0283001	426.578
340.1000	0.0121891	426.187
340.0000	0.0932585	425.687
339.9000	0.131721	425.183
339.8000	0.0657956	424.803
339.7000	-0.048066	424.324
339.6000	-0.123631	423.839
339.5000	-0.0344308	423.503
339.4000	-0.121204	423.021
339.3000	-0.180641	422.519
339.2000	-0.132407	421.987
339.1000	-0.176866	421.51
339.0000	-0.192432	421.022
338.9000	-0.0686351	420.463
338.8000	0.071737	419.95
338.7000	0.00250229	419.425
338.6000	0.00325451	418.865
338.5000	0.0937823	418.378
338.4000	0.184669	418.01
338.3000	0.260754	417.536
338.2000	0.44316	417.058
338.1000	0.368758	416.707
338.0000	0.210356	416.259
337.9000	0.237531	415.813
337.8000	0.202275	415.498
337.7000	0.0858515	415.092
337.6000	-0.0218923	414.677
337.5000	0.000252706	414.371
337.4000	0.0223611	413.976
337.3000	-0.00735541	413.567
337.2000	0.0569141	413.098
337.1000	-0.00216444	412.671
337.0000	-0.0909976	412.234
336.9000	-0.0608732	411.764
336.8000	-0.091609	411.347
336.7000	-0.168382	410.924
336.6000	-0.227557	410.455
336.5000	-0.24335	410.028
336.4000	-0.297887	409.727
336.3000	-0.286684	409.324
336.2000	-0.29825	408.914
336.1000	-0.329043	408.608
336.0000	-0.284771	408.218
335.9000	-0.23259	407.813
335.8000	-0.288869	407.366
335.7000	-0.381319	406.96
335.6000	-0.274787	406.552
335.5000	-0.221075	406.133
335.4000	-0.221328	405.765
335.3000	-0.173977	405.391
335.2000	-0.300678	404.98
335.1000	-0.322792	404.619
335.0000	-0.352996	404.369
334.9000	-0.259045	404.029
334.8000	-0.386331	403.673
334.7000	-0.506226	403.289
334.6000	-0.406146	402.955
334.5000	-0.344203	402.612
334.4000	-0.247876	402.215
334.3000	-0.19096	401.852
334.2000	-0.214431	401.477
334.1000	-0.35682	401.067
334.0000	-0.381964	400.71
333.9000	-0.38003	400.446
333.8000	-0.504686	400.088
333.7000	-0.641919	399.719
333.6000	-0.724026	399.329
333.5000	-0.718322	398.992
333.4000	-0.666509	398.653
333.3000	-0.587672	398.292
333.2000	-0.469622	397.977
333.1000	-0.256963	397.663
333.0000	-0.170587	397.321
332.9000	-0.123105	397.021
332.8000	-0.0298795	396.675
332.7000	-0.0418745	396.361
332.6000	-0.193606	396.039
332.5000	-0.243535	395.699
332.4000	-0.251009	395.403
332.3000	-0.480975	395.089
332.2000	-0.453714	394.732
332.1000	-0.334841	394.406
332.0000	-0.415612	394.056
331.9000	-0.498418	393.76
331.8000	-0.559907	393.462
331.7000	-0.472864	393.123
331.6000	-0.402244	392.806
331.5000	-0.256829	392.379
331.4000	-0.306973	392.045
331.3000	-0.33874	391.758
331.2000	-0.236492	391.438
331.1000	-0.10714	391.154
331.0000	-0.0782831	390.862
330.9000	-0.141199	390.559
330.8000	-0.216488	390.293
330.7000	-0.238262	389.985
330.6000	-0.236656	389.708
330.5000	-0.270876	389.426
330.4000	-0.336947	389.127
330.3000	-0.309219	388.871
330.2000	-0.219894	388.495
330.1000	-0.195646	388.181
330.0000	-0.123674	387.904
329.9000	-0.134386	387.608
329.8000	-0.142884	387.352
329.7000	-0.280667	386.993
329.6000	-0.27432	386.709
329.5000	-0.322021	386.454
329.4000	-0.329631	386.163
329.3000	-0.2487	385.91
329.2000	-0.166232	385.548
329.1000	-0.232936	385.255
329.0000	-0.254283	384.998
328.9000	-0.235461	384.732
328.8000	-0.414558	384.488
328.7000	-0.587368	384.133
328.6000	-0.658032	383.867
328.5000	-0.772721	383.64
328.4000	-0.855497	383.378
328.3000	-0.772729	383.155
328.2000	-0.769658	382.853
328.1000	-0.712408	382.607
328.0000	-0.596582	382.386
327.9000	-0.341276	382.14
327.8000	-0.256423	381.921
327.7000	-0.251043	381.649
327.6000	-0.282979	381.457
327.5000	-0.375487	381.298
327.4000	-0.429621	381.023
327.3000	-0.482203	380.766
327.2000	-0.422217	380.465
327.1000	-0.474795	380.234
327.0000	-0.624028	380.036
326.9000	-0.704103	379.752
326.8000	-0.653684	379.477
326.7000	-0.636799	379.154
326.6000	-0.669805	378.951
326.5000	-0.666316	378.813
326.4000	-0.716834	378.557
326.3000	-0.754159	378.309
326.2000	-0.691157	378.035
326.1000	-0.583021	377.848
326.0000	-0.58713	377.553
325.9000	-0.516542	377.291
325.8000	-0.437369	377.041
325.7000	-0.296511	376.784
325.6000	-0.245911	376.629
325.5000	-0.217604	376.335
325.4000	-0.240739	376.052
325.3000	-0.230637	375.775
325.2000	-0.160214	375.599
325.1000	-0.148814	375.472
325.0000	-0.23794	375.186
324.9000	-0.355487	374.898
324.8000	-0.45933	374.598
324.7000	-0.460676	374.44
324.6000	-0.479766	374.353
324.5000	-0.536692	374.085
324.4000	-0.580197	373.813
324.3000	-0.673573	373.557
324.2000	-0.736609	373.408
324.1000	-0.700673	373.141
324.0000	-0.719387	372.871
323.9000	-0.706717	372.599
323.8000	-0.710622	372.351
323.7000	-0.650123	372.229
323.6000	-0.553378	371.965
323.5000	-0.449491	371.677
323.4000	-0.380949	371.4
323.3000	-0.329107	371.253
323.2000	-0.230201	371.168
323.1000	-0.109111	370.902
323.0000	-0.084537	370.606
322.9000	-0.0655658	370.313
322.8000	-0.102629	370.162
322.7000	-0.221259	369.903
322.6000	-0.272353	369.619
322.5000	-0.278435	369.34
322.4000	-0.327695	369.057
322.3000	-0.419393	368.887
322.2000	-0.37912	368.606
322.1000	-0.342184	368.3
322.0000	-0.372497	368.003
321.9000	-0.358705	367.836
321.8000	-0.382203	367.55
321.7000	-0.38113	367.248
321.6000	-0.363579	366.931
321.5000	-0.326871	366.641
321.4000	-0.348543	366.489
321.3000	-0.382647	366.266
321.2000	-0.326591	366.035
321.1000	-0.248859	365.804
321.0000	-0.238596	365.719
320.9000	-0.229101	365.557
320.8000	-0.320428	365.396
320.7000	-0.367752	365.25
320.6000	-0.430442	365.103
320.5000	-0.499393	365.061
320.4000	-0.612316	364.9
320.3000	-0.678862	364.729
320.2000	-0.672012	364.566
320.1000	-0.596268	364.514
320.0000	-0.534841	364.358
319.9000	-0.475525	364.178
319.8000	-0.408965	363.983
319.7000	-0.33481	363.782
319.6000	-0.290834	363.554
319.5000	-0.270659	363.38
319.4000	-0.312179	363.188
319.3000	-0.43095	362.968
319.2000	-0.547522	362.855
319.1000	-0.532944	362.654
319.0000	-0.562428	362.439
318.9000	-0.630579	362.221
318.8000	-0.584818	362.107
318.7000	-0.553511	361.891
318.6000	-0.458123	361.665
318.5000	-0.349869	361.467
318.4000	-0.178231	361.268
318.3000	-0.177514	361.037
318.2000	-0.149017	360.862
318.1000	-0.108515	360.687
318.0000	-0.0967469	360.503
317.9000	-0.0805172	360.427
317.8000	-0.17402	360.288
317.7000	-0.218126	360.131
317.6000	-0.364518	359.942
317.5000	-0.470431	359.845
317.4000	-0.55038	359.684
317.3000	-0.630328	359.513
317.2000	-0.650644	359.325
317.1000	-0.754396	359.127
317.0000	-0.738971	358.88
316.9000	-0.653476	358.676
316.8000	-0.547826	358.492
316.7000	-0.420417	358.308
316.6000	-0.389718	358.118
316.5000	-0.328723	357.963
316.4000	-0.266595	357.796
316.3000	-0.176049	357.629
316.2000	-0.153993	357.463
316.1000	-0.233073	357.344
316.0000	-0.354804	357.217
315.9000	-0.438311	357.047
315.8000	-0.411966	356.937
315.7000	-0.321368	356.767
315.6000	-0.370878	356.61
315.5000	-0.419605	356.431
315.4000	-0.470314	356.318
315.3000	-0.37026	356.12
315.2000	-0.27204	355.914
315.1000	-0.203781	355.73
315.0000	-0.17941	355.555
314.9000	-0.231252	355.375
314.8000	-0.272465	355.224
314.7000	-0.268945	355.064
314.6000	-0.242878	354.907
314.5000	-0.280379	354.755
314.4000	-0.357794	354.642
314.3000	-0.406391	354.508
314.2000	-0.428956	354.375
314.1000	-0.445298	354.196
314.0000	-0.494191	354.034
313.9000	-0.483598	353.877
313.8000	-0.475048	353.727
313.7000	-0.431027	353.513
313.6000	-0.381954	353.318
313.5000	-0.450613	353.128
313.4000	-0.431824	352.945
313.3000	-0.45267	352.77
313.2000	-0.387586	352.628
313.1000	-0.358297	352.473
313.0000	-0.384404	352.316
312.9000	-0.467694	352.168
312.8000	-0.49405	352.062
312.7000	-0.457846	351.936
312.6000	-0.532644	351.808
312.5000	-0.603935	351.637
312.4000	-0.62728	351.482
312.3000	-0.642847	351.305
312.2000	-0.675008	351.131
312.1000	-0.578186	350.911
312.0000	-0.512882	350.706
311.9000	-0.515629	350.506
311.8000	-0.477886	350.266
311.7000	-0.453015	350.081
311.6000	-0.472974	349.893
311.5000	-0.464614	349.74
311.4000	-0.462952	349.541
311.3000	-0.480543	349.416
311.2000	-0.586174	349.293
311.1000	-0.592902	349.191
311.0000	-0.670033	349.068
310.9000	-0.700916	348.968
310.8000	-0.713216	348.857
310.7000	-0.774439	348.758
310.6000	-0.767547	348.623
310.5000	-0.817864	348.509
310.4000	-0.807106	348.409
310.3000	-0.83953	348.316
310.2000	-0.781745	348.232
310.1000	-0.684882	348.164
310.0000	-0.671234	348.086
309.9000	-0.71229	348.012
309.8000	-0.730234	347.95
309.7000	-0.714206	347.862
309.6000	-0.617435	347.786
309.5000	-0.606173	347.661
309.4000	-0.610671	347.56
309.3000	-0.663865	347.424
309.2000	-0.699046	347.314
309.1000	-0.614899	347.143
309.0000	-0.605692	347
308.9000	-0.641148	346.873
308.8000	-0.772593	346.76
308.7000	-0.876821	346.651
308.6000	-0.866174	346.563
308.5000	-0.816468	346.464
308.4000	-0.79742	346.346
308.3000	-0.760648	346.278
308.2000	-0.760216	346.171
308.1000	-0.69348	346.09
308.0000	-0.614772	345.983
307.9000	-0.593138	345.893
307.8000	-0.59766	345.759
307.7000	-0.624807	345.652
307.6000	-0.641753	345.531
307.5000	-0.635536	345.368
307.4000	-0.570132	345.251
307.3000	-0.542509	345.126
307.2000	-0.562085	345.029
307.1000	-0.54608	344.9
307.0000	-0.463577	344.808
306.9000	-0.485855	344.706
306.8000	-0.475497	344.639
306.7000	-0.499781	344.568
306.6000	-0.53704	344.474
306.5000	-0.629768	344.391
306.4000	-0.659777	344.268
306.3000	-0.619276	344.179
306.2000	-0.62361	344.06
306.1000	-0.635621	343.956
306.0000	-0.669317	343.814
305.9000	-0.653463	343.711
305.8000	-0.666464	343.633
305.7000	-0.569261	343.525
305.6000	-0.553263	343.444
305.5000	-0.581036	343.363
305.4000	-0.637398	343.31
305.3000	-0.713426	343.219
305.2000	-0.735986	343.155
305.1000	-0.798005	343.075
305.0000	-0.791244	342.955
304.9000	-0.871053	342.872
304.8000	-0.94647	342.761
304.7000	-0.985864	342.665
304.6000	-0.998844	342.535
304.5000	-1.00422	342.427
304.4000	-0.979589	342.341
304.3000	-0.99293	342.226
304.2000	-1.0015	342.16
304.1000	-1.03278	342.095
304.0000	-1.07297	342.057
303.9000	-1.04308	341.978
303.8000	-1.00776	341.902
303.7000	-0.959913	341.855
303.6000	-0.932193	341.754
303.5000	-0.899061	341.685
303.4000	-0.869568	341.597
303.3000	-0.830001	341.486
303.2000	-0.79936	341.378
303.1000	-0.865598	341.289
303.0000	-0.898477	341.237
302.9000	-0.881828	341.146
302.8000	-0.853995	341.071
302.7000	-0.8306	341.015
302.6000	-0.843498	340.93
302.5000	-0.859681	340.882
302.4000	-0.803203	340.825
302.3000	-0.760701	340.732
302.2000	-0.691551	340.642
302.1000	-0.662629	340.549
302.0000	-0.624794	340.489
301.9000	-0.693326	340.397
301.8000	-0.712882	340.319
301.7000	-0.7563	340.256
301.6000	-0.799994	340.165
301.5000	-0.826141	340.115
301.4000	-0.855036	340.062
301.3000	-0.961429	339.982
301.2000	-1.09224	339.909
301.1000	-1.13484	339.843
301.0000	-1.16548	339.807
300.9000	-1.1317	339.729
300.8000	-1.1281	339.651
300.7000	-1.05443	339.591
300.6000	-1.00751	339.51
300.5000	-0.931998	339.446
300.4000	-0.880415	339.397
300.3000	-0.890506	339.319
300.2000	-0.803107	339.248
300.1000	-0.810519	339.193
300.0000	-0.74609	339.132
299.9000	-0.780874	339.079
299.8000	-0.874005	339.022
299.7000	-0.833683	338.955
299.6000	-0.81631	338.895
299.5000	-0.732974	338.834
299.4000	-0.702136	338.785
299.3000	-0.666262	338.714
299.2000	-0.682132	338.66
299.1000	-0.661099	338.619
299.0000	-0.561659	338.559
298.9000	-0.512659	338.513
298.8000	-0.517377	338.475
298.7000	-0.516646	338.423
298.6000	-0.546835	338.376
298.5000	-0.565676	338.329
298.4000	-0.490491	338.271
298.3000	-0.52458	338.214
298.2000	-0.541145	338.153
298.1000	-0.596231	338.09
298.0000	-0.633855	338.036
297.9000	-0.619349	337.984
297.8000	-0.602111	337.914
297.7000	-0.520676	337.86
297.6000	-0.559187	337.814
297.5000	-0.614683	337.746
297.4000	-0.632741	337.698
297.3000	-0.718993	337.655
297.2000	-0.722544	337.587
297.1000	-0.810941	337.534
297.0000	-0.853891	337.486
296.9000	-0.932099	337.415
296.8000	-0.972588	337.361
296.7000	-0.954923	337.32
296.6000	-0.953748	337.29
296.5000	-0.895815	337.246
296.4000	-0.889686	337.214
296.3000	-0.868993	337.191
296.2000	-0.903289	337.147
296.1000	-0.932883	337.112
296.0000	-0.988679	337.085
295.9000	-1.01127	337.038
295.8000	-1.04294	336.97
295.7000	-1.09815	336.925
295.6000	-1.14685	336.877
295.5000	-1.21128	336.808
295.4000	-1.17245	336.736
295.3000	-1.11841	336.693
295.2000	-1.15251	336.636
295.1000	-1.14944	336.57
295.0000	-1.15246	336.533
294.9000	-1.14581	336.485
294.8000	-1.0784	336.42
294.7000	-1.00335	336.38
294.6000	-1.014	336.346
294.5000	-1.05783	336.296
294.4000	-1.10074	336.253
294.3000	-1.11012	336.225
294.2000	-1.1206	336.177
294.1000	-1.04919	336.142
294.0000	-1.01247	336.122
293.9000	-1.04844	336.073
293.8000	-0.995037	336.044
293.7000	-1.00239	336.02
293.6000	-0.945034	335.973
293.5000	-0.893316	335.915
293.4000	-0.889921	335.883
293.3000	-0.876692	335.836
293.2000	-0.892094	335.778
293.1000	-0.90532	335.753
293.0000	-0.928472	335.705
292.9000	-0.914164	335.653
292.8000	-0.869415	335.632
292.7000	-0.880475	335.604
292.6000	-0.868865	335.564
292.5000	-0.87088	335.507
292.4000	-0.859865	335.472
292.3000	-0.82898	335.422
292.2000	-0.767433	335.37
292.1000	-0.710918	335.342
292.0000	-0.822911	335.29
291.9000	-0.863584	335.229
291.8000	-0.888286	335.181
291.7000	-0.886132	335.158
291.6000	-0.893896	335.113
291.5000	-0.932434	335.064
291.4000	-0.980266	335.04
291.3000	-1.00751	334.989
291.2000	-0.98158	334.927
291.1000	-0.898328	334.867
291.0000	-0.880615	334.819
290.9000	-0.936463	334.75
290.8000	-1.01725	334.661
290.7000	-1.07277	334.57
290.6000	-1.10683	334.465
290.5000	-1.12158	334.344
290.4000	-1.14489	334.212
290.3000	-1.16281	334.097
290.2000	-1.13926	333.957
290.1000	-1.13897	333.802
290.0000	-1.10818	333.661
289.9000	-1.04658	333.557
289.8000	-1.0118	333.457
289.7000	-1.0125	333.379
289.6000	-1.01128	333.345
289.5000	-1.01695	333.35
289.4000	-0.970185	333.38
289.3000	-0.951277	333.448
289.2000	-0.90927	333.537
289.1000	-0.868109	333.646
289.0000	-0.83834	333.751
288.9000	-0.809289	333.86
288.8000	-0.789149	333.959
288.7000	-0.744756	334.045
288.6000	-0.791262	334.112
288.5000	-0.842498	334.162
288.4000	-0.801919	334.196
288.3000	-0.815222	334.224
288.2000	-0.838318	334.23
288.1000	-0.86927	334.224
288.0000	-0.91341	334.203
287.9000	-0.936408	334.168
287.8000	-0.953963	334.147
287.7000	-0.990873	334.117
287.6000	-1.04128	334.094
287.5000	-1.11904	334.052
287.4000	-1.20412	334.028
287.3000	-1.21539	334.014
287.2000	-1.16721	333.998
287.1000	-1.16147	333.986
287.0000	-1.17887	333.948
286.9000	-1.13502	333.93
286.8000	-1.11795	333.918
286.7000	-1.13767	333.899
286.6000	-1.04589	333.877
286.5000	-1.09425	333.863
286.4000	-1.16738	333.849
286.3000	-1.21787	333.846
286.2000	-1.22421	333.84
286.1000	-1.22845	333.827
286.0000	-1.22458	333.831
285.9000	-1.20122	333.825
285.8000	-1.24945	333.823
285.7000	-1.2378	333.799
285.6000	-1.13657	333.785
285.5000	-1.01559	333.794
285.4000	-0.982475	333.798
285.3000	-0.964953	333.81
285.2000	-0.951608	333.788
285.1000	-0.901547	333.783
285.0000	-0.831908	333.796
284.9000	-0.790249	333.797
284.8000	-0.748497	333.805
284.7000	-0.79038	333.783
284.6000	-0.826618	333.766
284.5000	-0.881607	333.771
284.4000	-0.947035	333.772
284.3000	-0.969454	333.779
284.2000	-0.994212	333.754
284.1000	-0.95026	333.749
284.0000	-0.968206	333.73
283.9000	-0.966072	333.734
283.8000	-0.959561	333.749
283.7000	-0.908937	333.739
283.6000	-0.790257	333.735
283.5000	-0.756183	333.726
283.4000	-0.715676	333.727
283.3000	-0.74476	333.74
283.2000	-0.694387	333.755
283.1000	-0.698858	333.764
283.0000	-0.729434	333.749
282.9000	-0.755655	333.742
282.8000	-0.788814	333.729
282.7000	-0.802009	333.738
282.6000	-0.8111	333.752
282.5000	-0.84141	333.753
282.4000	-0.905728	333.749
282.3000	-0.912222	333.743
282.2000	-0.867659	333.741
282.1000	-0.879993	333.754
282.0000	-0.895795	333.767
281.9000	-0.868997	333.772
281.8000	-0.894107	333.767
281.7000	-0.875542	333.761
281.6000	-0.832785	333.758
281.5000	-0.786646	333.757
281.4000	-0.804768	333.776
281.3000	-0.750981	333.791
281.2000	-0.64548	333.798
281.1000	-0.637671	333.8
281.0000	-0.64377	333.802
280.9000	-0.652626	333.801
280.8000	-0.661704	333.796
280.7000	-0.657768	333.796
280.6000	-0.628455	333.8
280.5000	-0.59284	333.792
280.4000	-0.599323	333.786
280.3000	-0.580519	333.777
280.2000	-0.579215	333.768
280.1000	-0.539448	333.761
280.0000	-0.52154	333.754
279.9000	-0.588137	333.743
279.8000	-0.659567	333.721
279.7000	-0.73773	333.716
279.6000	-0.799067	333.713
279.5000	-0.912333	333.712
279.4000	-0.948552	333.714
279.3000	-1.0311	333.712
279.2000	-1.10247	333.713
279.1000	-1.14491	333.717
279.0000	-1.16133	333.723
278.9000	-1.16527	333.722
