TITLE	cal_0.6uM
DATA TYPE	
ORIGIN	JASCO
OWNER	
DATE	24/04/09
TIME	15:30:12
SPECTROMETER/DATA SYSTEM	
LOCALE	1033
RESOLUTION	
DELTAX	-0.1
XUNITS	NANOMETERS
YUNITS	Mol. Ellip.
Y2UNITS	HT [V]
FIRSTX	  350.0000
LASTX	  190.0000
NPOINTS	    1601
FIRSTY	833333.31250
MAXY	3598074.50000
MINY	-2384375.50000
XYDATA
350.0000	833333	488.125
349.9000	926760	487.493
349.8000	285494	486.549
349.7000	341907	485.604
349.6000	706505	484.929
349.5000	1.15356E+006	484.352
349.4000	962474	483.458
349.3000	663098	482.818
349.2000	627607	482.28
349.1000	701737	481.424
349.0000	1.14135E+006	480.794
348.9000	1.32351E+006	480.234
348.8000	1.04744E+006	479.356
348.7000	546086	478.461
348.6000	631622	477.816
348.5000	642504	477.251
348.4000	638054	476.344
348.3000	372622	475.665
348.2000	213502	475.074
348.1000	352209	474.198
348.0000	437004	473.538
347.9000	654373	472.964
347.8000	623901	472.099
347.7000	667949	471.222
347.6000	838712	470.605
347.5000	1.14718E+006	470.093
347.4000	1.06914E+006	469.279
347.3000	564804	468.661
347.2000	251622	468.135
347.1000	206526	467.342
347.0000	62804	466.749
346.9000	-229164	466.232
346.8000	-470696	465.433
346.7000	-666481	464.624
346.6000	-774809	464.026
346.5000	-732606	463.252
346.4000	-561840	462.471
346.3000	-598606	461.876
346.2000	-713821	461.089
346.1000	-487870	460.292
346.0000	-350291	459.708
345.9000	-463724	459.197
345.8000	-206657	458.405
345.7000	23580.5	457.817
345.6000	304955	457.305
345.5000	558893	456.559
345.4000	862248	456.02
345.3000	725096	455.554
345.2000	956383	454.829
345.1000	1.33603E+006	454.095
345.0000	1.44376E+006	453.555
344.9000	1.44802E+006	452.862
344.8000	1.30547E+006	452.154
344.7000	1.03746E+006	451.605
344.6000	599166	450.903
344.5000	477644	450.2
344.4000	496376	449.683
344.3000	489720	448.98
344.2000	505399	448.265
344.1000	515782	447.721
344.0000	584063	447.045
343.9000	642527	446.366
343.8000	868437	445.869
343.7000	1.00124E+006	445.431
343.6000	837240	444.738
343.5000	470884	444.234
343.4000	200846	443.816
343.3000	319995	443.175
343.2000	214976	442.686
343.1000	-213631	442.253
343.0000	-321220	441.612
342.9000	-313612	440.964
342.8000	-206813	440.488
342.7000	-61604.3	439.871
342.6000	246577	439.247
342.5000	219127	438.781
342.4000	45630	438.187
342.3000	95076	437.586
342.2000	120530	437.131
342.1000	143741	436.545
342.0000	54632.4	435.95
341.9000	-791.773	435.524
341.8000	74350.1	434.946
341.7000	61279.2	434.355
341.6000	-17903	433.912
341.5000	-206687	433.363
341.4000	-106787	432.815
341.3000	-342830	432.398
341.2000	-466286	431.805
341.1000	-369141	431.202
341.0000	-456760	430.759
340.9000	-684008	430.197
340.8000	-872943	429.629
340.7000	-712988	429.184
340.6000	-521918	428.617
340.5000	-413690	428.039
340.4000	-278668	427.635
340.3000	-232653	427.109
340.2000	-47166.8	426.578
340.1000	20315.1	426.187
340.0000	155431	425.687
339.9000	219535	425.183
339.8000	109659	424.803
339.7000	-80110	424.324
339.6000	-206052	423.839
339.5000	-57384.7	423.503
339.4000	-202007	423.021
339.3000	-301068	422.519
339.2000	-220678	421.987
339.1000	-294776	421.51
339.0000	-320720	421.022
338.9000	-114392	420.463
338.8000	119562	419.95
338.7000	4170.49	419.425
338.6000	5424.18	418.865
338.5000	156304	418.378
338.4000	307782	418.01
338.3000	434590	417.536
338.2000	738600	417.058
338.1000	614596	416.707
338.0000	350593	416.259
337.9000	395885	415.813
337.8000	337124	415.498
337.7000	143086	415.092
337.6000	-36487.2	414.677
337.5000	421.176	414.371
337.4000	37268.5	413.976
337.3000	-12259	413.567
337.2000	94856.8	413.098
337.1000	-3607.39	412.671
337.0000	-151663	412.234
336.9000	-101455	411.764
336.8000	-152682	411.347
336.7000	-280636	410.924
336.6000	-379261	410.455
336.5000	-405584	410.028
336.4000	-496478	409.727
336.3000	-477807	409.324
336.2000	-497083	408.914
336.1000	-548404	408.608
336.0000	-474619	408.218
335.9000	-387650	407.813
335.8000	-481448	407.366
335.7000	-635532	406.96
335.6000	-457979	406.552
335.5000	-368458	406.133
335.4000	-368879	405.765
335.3000	-289962	405.391
335.2000	-501131	404.98
335.1000	-537987	404.619
335.0000	-588326	404.369
334.9000	-431742	404.029
334.8000	-643885	403.673
334.7000	-843710	403.289
334.6000	-676911	402.955
334.5000	-573672	402.612
334.4000	-413127	402.215
334.3000	-318267	401.852
334.2000	-357385	401.477
334.1000	-594701	401.067
334.0000	-636607	400.71
333.9000	-633384	400.446
333.8000	-841143	400.088
333.7000	-1.06986E+006	399.719
333.6000	-1.20671E+006	399.329
333.5000	-1.1972E+006	398.992
333.4000	-1.11085E+006	398.653
333.3000	-979453	398.292
333.2000	-782704	397.977
333.1000	-428272	397.663
333.0000	-284311	397.321
332.9000	-205175	397.021
332.8000	-49799.2	396.675
332.7000	-69790.8	396.361
332.6000	-322677	396.039
332.5000	-405891	395.699
332.4000	-418348	395.403
332.3000	-801625	395.089
332.2000	-756190	394.732
332.1000	-558069	394.406
332.0000	-692686	394.056
331.9000	-830696	393.76
331.8000	-933179	393.462
331.7000	-788107	393.123
331.6000	-670407	392.806
331.5000	-428048	392.379
331.4000	-511621	392.045
331.3000	-564566	391.758
331.2000	-394154	391.438
331.1000	-178567	391.154
331.0000	-130472	390.862
330.9000	-235331	390.559
330.8000	-360814	390.293
330.7000	-397103	389.985
330.6000	-394427	389.708
330.5000	-451460	389.426
330.4000	-561579	389.127
330.3000	-515364	388.871
330.2000	-366490	388.495
330.1000	-326077	388.181
330.0000	-206124	387.904
329.9000	-223977	387.608
329.8000	-238140	387.352
329.7000	-467779	386.993
329.6000	-457201	386.709
329.5000	-536702	386.454
329.4000	-549384	386.163
329.3000	-414501	385.91
329.2000	-277054	385.548
329.1000	-388227	385.255
329.0000	-423805	384.998
328.9000	-392435	384.732
328.8000	-690930	384.488
328.7000	-978948	384.133
328.6000	-1.09672E+006	383.867
328.5000	-1.28787E+006	383.64
328.4000	-1.42583E+006	383.378
328.3000	-1.28788E+006	383.155
328.2000	-1.28276E+006	382.853
328.1000	-1.18735E+006	382.607
328.0000	-994303	382.386
327.9000	-568793	382.14
327.8000	-427371	381.921
327.7000	-418405	381.649
327.6000	-471632	381.457
327.5000	-625812	381.298
327.4000	-716035	381.023
327.3000	-803672	380.766
327.2000	-703694	380.465
327.1000	-791325	380.234
327.0000	-1.04005E+006	380.036
326.9000	-1.17351E+006	379.752
326.8000	-1.08947E+006	379.477
326.7000	-1.06133E+006	379.154
326.6000	-1.11634E+006	378.951
326.5000	-1.11053E+006	378.813
326.4000	-1.19472E+006	378.557
326.3000	-1.25693E+006	378.309
326.2000	-1.15193E+006	378.035
326.1000	-971701	377.848
326.0000	-978550	377.553
325.9000	-860904	377.291
325.8000	-728948	377.041
325.7000	-494184	376.784
325.6000	-409852	376.629
325.5000	-362674	376.335
325.4000	-401232	376.052
325.3000	-384394	375.775
325.2000	-267023	375.599
325.1000	-248023	375.472
325.0000	-396567	375.186
324.9000	-592479	374.898
324.8000	-765550	374.598
324.7000	-767794	374.44
324.6000	-799609	374.353
324.5000	-894486	374.085
324.4000	-966995	373.813
324.3000	-1.12262E+006	373.557
324.2000	-1.22768E+006	373.408
324.1000	-1.16779E+006	373.141
324.0000	-1.19898E+006	372.871
323.9000	-1.17786E+006	372.599
323.8000	-1.18437E+006	372.351
323.7000	-1.08354E+006	372.229
323.6000	-922297	371.965
323.5000	-749152	371.677
323.4000	-634915	371.4
323.3000	-548512	371.253
323.2000	-383669	371.168
323.1000	-181852	370.902
323.0000	-140895	370.606
322.9000	-109276	370.313
322.8000	-171048	370.162
322.7000	-368766	369.903
322.6000	-453921	369.619
322.5000	-464059	369.34
322.4000	-546159	369.057
322.3000	-698988	368.887
322.2000	-631867	368.606
322.1000	-570306	368.3
322.0000	-620829	368.003
321.9000	-597841	367.836
321.8000	-637005	367.55
321.7000	-635217	367.248
321.6000	-605965	366.931
321.5000	-544785	366.641
321.4000	-580905	366.489
321.3000	-637745	366.266
321.2000	-544318	366.035
321.1000	-414765	365.804
321.0000	-397659	365.719
320.9000	-381835	365.557
320.8000	-534046	365.396
320.7000	-612919	365.25
320.6000	-717404	365.103
320.5000	-832322	365.061
320.4000	-1.02053E+006	364.9
320.3000	-1.13144E+006	364.729
320.2000	-1.12002E+006	364.566
320.1000	-993779	364.514
320.0000	-891402	364.358
319.9000	-792541	364.178
319.8000	-681609	363.983
319.7000	-558017	363.782
319.6000	-484723	363.554
319.5000	-451099	363.38
319.4000	-520299	363.188
319.3000	-718250	362.968
319.2000	-912536	362.855
319.1000	-888240	362.654
319.0000	-937381	362.439
318.9000	-1.05096E+006	362.221
318.8000	-974697	362.107
318.7000	-922518	361.891
318.6000	-763538	361.665
318.5000	-583115	361.467
318.4000	-297051	361.268
318.3000	-295857	361.037
318.2000	-248362	360.862
318.1000	-180858	360.687
318.0000	-161245	360.503
317.9000	-134195	360.427
317.8000	-290033	360.288
317.7000	-363543	360.131
317.6000	-607531	359.942
317.5000	-784052	359.845
317.4000	-917300	359.684
317.3000	-1.05055E+006	359.513
317.2000	-1.08441E+006	359.325
317.1000	-1.25733E+006	359.127
317.0000	-1.23162E+006	358.88
316.9000	-1.08913E+006	358.676
316.8000	-913043	358.492
316.7000	-700696	358.308
316.6000	-649530	358.118
316.5000	-547872	357.963
316.4000	-444325	357.796
316.3000	-293415	357.629
316.2000	-256656	357.463
316.1000	-388455	357.344
316.0000	-591340	357.217
315.9000	-730518	357.047
315.8000	-686610	356.937
315.7000	-535613	356.767
315.6000	-618130	356.61
315.5000	-699342	356.431
315.4000	-783856	356.318
315.3000	-617100	356.12
315.2000	-453400	355.914
315.1000	-339635	355.73
315.0000	-299017	355.555
314.9000	-385420	355.375
314.8000	-454109	355.224
314.7000	-448242	355.064
314.6000	-404798	354.907
314.5000	-467298	354.755
314.4000	-596323	354.642
314.3000	-677319	354.508
314.2000	-714926	354.375
314.1000	-742164	354.196
314.0000	-823652	354.034
313.9000	-805996	353.877
313.8000	-791747	353.727
313.7000	-718379	353.513
313.6000	-636589	353.318
313.5000	-751021	353.128
313.4000	-719707	352.945
313.3000	-754449	352.77
313.2000	-645977	352.628
313.1000	-597162	352.473
313.0000	-640674	352.316
312.9000	-779489	352.168
312.8000	-823417	352.062
312.7000	-763076	351.936
312.6000	-887739	351.808
312.5000	-1.00656E+006	351.637
312.4000	-1.04547E+006	351.482
312.3000	-1.07141E+006	351.305
312.2000	-1.12501E+006	351.131
312.1000	-963643	350.911
312.0000	-854803	350.706
311.9000	-859381	350.506
311.8000	-796477	350.266
311.7000	-755025	350.081
311.6000	-788290	349.893
311.5000	-774356	349.74
311.4000	-771587	349.541
311.3000	-800905	349.416
311.2000	-976957	349.293
311.1000	-988169	349.191
311.0000	-1.11672E+006	349.068
310.9000	-1.16819E+006	348.968
310.8000	-1.18869E+006	348.857
310.7000	-1.29073E+006	348.758
310.6000	-1.27925E+006	348.623
310.5000	-1.36311E+006	348.509
310.4000	-1.34518E+006	348.409
310.3000	-1.39922E+006	348.316
310.2000	-1.30291E+006	348.232
310.1000	-1.14147E+006	348.164
310.0000	-1.11872E+006	348.086
309.9000	-1.18715E+006	348.012
309.8000	-1.21706E+006	347.95
309.7000	-1.19034E+006	347.862
309.6000	-1.02906E+006	347.786
309.5000	-1.01029E+006	347.661
309.4000	-1.01779E+006	347.56
309.3000	-1.10644E+006	347.424
309.2000	-1.16508E+006	347.314
309.1000	-1.02483E+006	347.143
309.0000	-1.00949E+006	347
308.9000	-1.06858E+006	346.873
308.8000	-1.28765E+006	346.76
308.7000	-1.46137E+006	346.651
308.6000	-1.44362E+006	346.563
308.5000	-1.36078E+006	346.464
308.4000	-1.32903E+006	346.346
308.3000	-1.26775E+006	346.278
308.2000	-1.26703E+006	346.171
308.1000	-1.1558E+006	346.09
308.0000	-1.02462E+006	345.983
307.9000	-988563	345.893
307.8000	-996100	345.759
307.7000	-1.04135E+006	345.652
307.6000	-1.06959E+006	345.531
307.5000	-1.05923E+006	345.368
307.4000	-950221	345.251
307.3000	-904182	345.126
307.2000	-936808	345.029
307.1000	-910133	344.9
307.0000	-772629	344.808
306.9000	-809758	344.706
306.8000	-792494	344.639
306.7000	-832968	344.568
306.6000	-895067	344.474
306.5000	-1.04961E+006	344.391
306.4000	-1.09963E+006	344.268
306.3000	-1.03213E+006	344.179
306.2000	-1.03935E+006	344.06
306.1000	-1.05937E+006	343.956
306.0000	-1.11553E+006	343.814
305.9000	-1.0891E+006	343.711
305.8000	-1.11077E+006	343.633
305.7000	-948768	343.525
305.6000	-922105	343.444
305.5000	-968394	343.363
305.4000	-1.06233E+006	343.31
305.3000	-1.18904E+006	343.219
305.2000	-1.22664E+006	343.155
305.1000	-1.33001E+006	343.075
305.0000	-1.31874E+006	342.955
304.9000	-1.45176E+006	342.872
304.8000	-1.57745E+006	342.761
304.7000	-1.64311E+006	342.665
304.6000	-1.66474E+006	342.535
304.5000	-1.6737E+006	342.427
304.4000	-1.63265E+006	342.341
304.3000	-1.65488E+006	342.226
304.2000	-1.66916E+006	342.16
304.1000	-1.72129E+006	342.095
304.0000	-1.78829E+006	342.057
303.9000	-1.73846E+006	341.978
303.8000	-1.6796E+006	341.902
303.7000	-1.59985E+006	341.855
303.6000	-1.55366E+006	341.754
303.5000	-1.49843E+006	341.685
303.4000	-1.44928E+006	341.597
303.3000	-1.38333E+006	341.486
303.2000	-1.33227E+006	341.378
303.1000	-1.44266E+006	341.289
303.0000	-1.49746E+006	341.237
302.9000	-1.46971E+006	341.146
302.8000	-1.42333E+006	341.071
302.7000	-1.38433E+006	341.015
302.6000	-1.40583E+006	340.93
302.5000	-1.4328E+006	340.882
302.4000	-1.33867E+006	340.825
302.3000	-1.26783E+006	340.732
302.2000	-1.15259E+006	340.642
302.1000	-1.10438E+006	340.549
302.0000	-1.04132E+006	340.489
301.9000	-1.15554E+006	340.397
301.8000	-1.18814E+006	340.319
301.7000	-1.2605E+006	340.256
301.6000	-1.33332E+006	340.165
301.5000	-1.3769E+006	340.115
301.4000	-1.42506E+006	340.062
301.3000	-1.60238E+006	339.982
301.2000	-1.82039E+006	339.909
301.1000	-1.89139E+006	339.843
301.0000	-1.94246E+006	339.807
300.9000	-1.88617E+006	339.729
300.8000	-1.88017E+006	339.651
300.7000	-1.75738E+006	339.591
300.6000	-1.67919E+006	339.51
300.5000	-1.55333E+006	339.446
300.4000	-1.46736E+006	339.397
300.3000	-1.48418E+006	339.319
300.2000	-1.33851E+006	339.248
300.1000	-1.35087E+006	339.193
300.0000	-1.24348E+006	339.132
299.9000	-1.30146E+006	339.079
299.8000	-1.45667E+006	339.022
299.7000	-1.38947E+006	338.955
299.6000	-1.36052E+006	338.895
299.5000	-1.22162E+006	338.834
299.4000	-1.17023E+006	338.785
299.3000	-1.11044E+006	338.714
299.2000	-1.13689E+006	338.66
299.1000	-1.10183E+006	338.619
299.0000	-936098	338.559
298.9000	-854432	338.513
298.8000	-862294	338.475
298.7000	-861076	338.423
298.6000	-911392	338.376
298.5000	-942794	338.329
298.4000	-817485	338.271
298.3000	-874299	338.214
298.2000	-901908	338.153
298.1000	-993718	338.09
298.0000	-1.05643E+006	338.036
297.9000	-1.03225E+006	337.984
297.8000	-1.00352E+006	337.914
297.7000	-867793	337.86
297.6000	-931979	337.814
297.5000	-1.02447E+006	337.746
297.4000	-1.05457E+006	337.698
297.3000	-1.19832E+006	337.655
297.2000	-1.20424E+006	337.587
297.1000	-1.35157E+006	337.534
297.0000	-1.42315E+006	337.486
296.9000	-1.5535E+006	337.415
296.8000	-1.62098E+006	337.361
296.7000	-1.59154E+006	337.32
296.6000	-1.58958E+006	337.29
296.5000	-1.49303E+006	337.246
296.4000	-1.48281E+006	337.214
296.3000	-1.44832E+006	337.191
296.2000	-1.50548E+006	337.147
296.1000	-1.55481E+006	337.112
296.0000	-1.6478E+006	337.085
295.9000	-1.68546E+006	337.038
295.8000	-1.73824E+006	336.97
295.7000	-1.83025E+006	336.925
295.6000	-1.91142E+006	336.877
295.5000	-2.0188E+006	336.808
295.4000	-1.95408E+006	336.736
295.3000	-1.86401E+006	336.693
295.2000	-1.92085E+006	336.636
295.1000	-1.91574E+006	336.57
295.0000	-1.92077E+006	336.533
294.9000	-1.90969E+006	336.485
294.8000	-1.79733E+006	336.42
294.7000	-1.67225E+006	336.38
294.6000	-1.69E+006	336.346
294.5000	-1.76306E+006	336.296
294.4000	-1.83456E+006	336.253
294.3000	-1.8502E+006	336.225
294.2000	-1.86767E+006	336.177
294.1000	-1.74865E+006	336.142
294.0000	-1.68744E+006	336.122
293.9000	-1.74739E+006	336.073
293.8000	-1.65839E+006	336.044
293.7000	-1.67065E+006	336.02
293.6000	-1.57506E+006	335.973
293.5000	-1.48886E+006	335.915
293.4000	-1.4832E+006	335.883
293.3000	-1.46115E+006	335.836
293.2000	-1.48682E+006	335.778
293.1000	-1.50887E+006	335.753
293.0000	-1.54745E+006	335.705
292.9000	-1.52361E+006	335.653
292.8000	-1.44903E+006	335.632
292.7000	-1.46746E+006	335.604
292.6000	-1.44811E+006	335.564
292.5000	-1.45147E+006	335.507
292.4000	-1.43311E+006	335.472
292.3000	-1.38163E+006	335.422
292.2000	-1.27906E+006	335.37
292.1000	-1.18486E+006	335.342
292.0000	-1.37152E+006	335.29
291.9000	-1.43931E+006	335.229
291.8000	-1.48048E+006	335.181
291.7000	-1.47689E+006	335.158
291.6000	-1.48983E+006	335.113
291.5000	-1.55406E+006	335.064
291.4000	-1.63378E+006	335.04
291.3000	-1.67919E+006	334.989
291.2000	-1.63597E+006	334.927
291.1000	-1.49721E+006	334.867
291.0000	-1.46769E+006	334.819
290.9000	-1.56077E+006	334.75
290.8000	-1.69541E+006	334.661
290.7000	-1.78794E+006	334.57
290.6000	-1.84472E+006	334.465
290.5000	-1.86931E+006	334.344
290.4000	-1.90815E+006	334.212
290.3000	-1.93801E+006	334.097
290.2000	-1.89876E+006	333.957
290.1000	-1.89828E+006	333.802
290.0000	-1.84696E+006	333.661
289.9000	-1.7443E+006	333.557
289.8000	-1.68633E+006	333.457
289.7000	-1.6875E+006	333.379
289.6000	-1.68547E+006	333.345
289.5000	-1.69492E+006	333.35
289.4000	-1.61697E+006	333.38
289.3000	-1.58546E+006	333.448
289.2000	-1.51545E+006	333.537
289.1000	-1.44685E+006	333.646
289.0000	-1.39723E+006	333.751
288.9000	-1.34881E+006	333.86
288.8000	-1.31525E+006	333.959
288.7000	-1.24126E+006	334.045
288.6000	-1.31877E+006	334.112
288.5000	-1.40416E+006	334.162
288.4000	-1.33653E+006	334.196
288.3000	-1.3587E+006	334.224
288.2000	-1.3972E+006	334.23
288.1000	-1.44878E+006	334.224
288.0000	-1.52235E+006	334.203
287.9000	-1.56068E+006	334.168
287.8000	-1.58994E+006	334.147
287.7000	-1.65145E+006	334.117
287.6000	-1.73547E+006	334.094
287.5000	-1.86507E+006	334.052
287.4000	-2.00686E+006	334.028
287.3000	-2.02566E+006	334.014
287.2000	-1.94535E+006	333.998
287.1000	-1.93578E+006	333.986
287.0000	-1.96479E+006	333.948
286.9000	-1.8917E+006	333.93
286.8000	-1.86326E+006	333.918
286.7000	-1.89612E+006	333.899
286.6000	-1.74315E+006	333.877
286.5000	-1.82375E+006	333.863
286.4000	-1.94564E+006	333.849
286.3000	-2.02978E+006	333.846
286.2000	-2.04035E+006	333.84
286.1000	-2.04742E+006	333.827
286.0000	-2.04096E+006	333.831
285.9000	-2.00203E+006	333.825
285.8000	-2.08242E+006	333.823
285.7000	-2.063E+006	333.799
285.6000	-1.89428E+006	333.785
285.5000	-1.69265E+006	333.794
285.4000	-1.63746E+006	333.798
285.3000	-1.60825E+006	333.81
285.2000	-1.58601E+006	333.788
285.1000	-1.50258E+006	333.783
285.0000	-1.38651E+006	333.796
284.9000	-1.31708E+006	333.797
284.8000	-1.2475E+006	333.805
284.7000	-1.3173E+006	333.783
284.6000	-1.3777E+006	333.766
284.5000	-1.46934E+006	333.771
284.4000	-1.57839E+006	333.772
284.3000	-1.61576E+006	333.779
284.2000	-1.65702E+006	333.754
284.1000	-1.58377E+006	333.749
284.0000	-1.61368E+006	333.73
283.9000	-1.61012E+006	333.734
283.8000	-1.59927E+006	333.749
283.7000	-1.5149E+006	333.739
283.6000	-1.3171E+006	333.735
283.5000	-1.2603E+006	333.726
283.4000	-1.19279E+006	333.727
283.3000	-1.24127E+006	333.74
283.2000	-1.15731E+006	333.755
283.1000	-1.16476E+006	333.764
283.0000	-1.21572E+006	333.749
282.9000	-1.25943E+006	333.742
282.8000	-1.31469E+006	333.729
282.7000	-1.33668E+006	333.738
282.6000	-1.35183E+006	333.752
282.5000	-1.40235E+006	333.753
282.4000	-1.50955E+006	333.749
282.3000	-1.52037E+006	333.743
282.2000	-1.4461E+006	333.741
282.1000	-1.46666E+006	333.754
282.0000	-1.49299E+006	333.767
281.9000	-1.44833E+006	333.772
281.8000	-1.49018E+006	333.767
281.7000	-1.45924E+006	333.761
281.6000	-1.38798E+006	333.758
281.5000	-1.31108E+006	333.757
281.4000	-1.34128E+006	333.776
281.3000	-1.25164E+006	333.791
