TITLE	ACE2
DATA TYPE	
ORIGIN	JASCO
OWNER	
DATE	24/04/09
TIME	16:05:26
SPECTROMETER/DATA SYSTEM	
LOCALE	1033
RESOLUTION	
DELTAX	-0.1
XUNITS	NANOMETERS
YUNITS	CD [mdeg]
Y2UNITS	HT [V]
FIRSTX	  350.0000
LASTX	  190.0000
NPOINTS	    1601
FIRSTY	     0.45047
MAXY	     6.50833
MINY	    -2.31567
XYDATA
350.0000	0.450474	468.138
349.9000	0.259179	467.561
349.8000	0.334637	466.686
349.7000	0.190606	465.782
349.6000	0.181416	465.131
349.5000	-0.0919733	464.559
349.4000	-0.191659	463.703
349.3000	0.00881155	463.095
349.2000	0.0251601	462.568
349.1000	-0.0266748	461.731
349.0000	-0.175467	461.112
348.9000	-0.00970751	460.58
348.8000	0.0840875	459.773
348.7000	0.216871	458.964
348.6000	0.167181	458.375
348.5000	0.143345	457.86
348.4000	0.155551	457.016
348.3000	0.217791	456.397
348.2000	0.167767	455.848
348.1000	0.134306	455.029
348.0000	0.0407109	454.408
347.9000	0.0386451	453.856
347.8000	-0.0252615	453.02
347.7000	-0.00603006	452.171
347.6000	-0.129193	451.562
347.5000	-0.0786807	451.056
347.4000	0.185307	450.287
347.3000	0.228583	449.705
347.2000	0.169161	449.202
347.1000	0.170525	448.45
347.0000	0.23954	447.904
346.9000	0.311498	447.436
346.8000	0.280479	446.702
346.7000	0.0628406	445.956
346.6000	-0.332928	445.397
346.5000	-0.611385	444.666
346.4000	-0.718905	443.926
346.3000	-0.867275	443.359
346.2000	-0.950091	442.607
346.1000	-1.02935	441.836
346.0000	-0.921987	441.264
345.9000	-0.71082	440.766
345.8000	-0.437906	439.998
345.7000	-0.216472	439.421
345.6000	-0.0502181	438.923
345.5000	0.367609	438.215
345.4000	0.541008	437.698
345.3000	0.626583	437.265
345.2000	0.476228	436.587
345.1000	0.350337	435.909
345.0000	0.278143	435.423
344.9000	0.212593	434.787
344.8000	0.205147	434.138
344.7000	0.0663116	433.636
344.6000	-0.0164122	432.996
344.5000	0.0662653	432.345
344.4000	0.163881	431.859
344.3000	0.296494	431.189
344.2000	0.289459	430.496
344.1000	0.265819	429.968
344.0000	0.249171	429.309
343.9000	0.265574	428.646
343.8000	0.283485	428.15
343.7000	0.2604	427.714
343.6000	0.380024	427.052
343.5000	0.438366	426.582
343.4000	0.630941	426.201
343.3000	0.715411	425.599
343.2000	0.76351	425.158
343.1000	0.71893	424.768
343.0000	0.582189	424.182
342.9000	0.642379	423.587
342.8000	0.549849	423.146
342.7000	0.388146	422.551
342.6000	0.245055	421.946
342.5000	0.133321	421.488
342.4000	0.0714049	420.907
342.3000	0.153111	420.324
342.2000	0.350032	419.877
342.1000	0.315848	419.297
342.0000	0.180396	418.711
341.9000	0.160963	418.296
341.8000	0.131676	417.743
341.7000	0.0843635	417.184
341.6000	0.00395092	416.774
341.5000	-0.199162	416.259
341.4000	-0.43807	415.741
341.3000	-0.519333	415.364
341.2000	-0.478666	414.828
341.1000	-0.402956	414.278
341.0000	-0.496973	413.861
340.9000	-0.457063	413.336
340.8000	-0.289358	412.798
340.7000	-0.265025	412.369
340.6000	-0.248403	411.823
340.5000	-0.304654	411.267
340.4000	-0.286623	410.866
340.3000	-0.364038	410.346
340.2000	-0.307531	409.829
340.1000	-0.245435	409.45
340.0000	-0.260649	408.976
339.9000	-0.361044	408.499
339.8000	-0.470012	408.139
339.7000	-0.500658	407.694
339.6000	-0.466619	407.246
339.5000	-0.450956	406.931
339.4000	-0.455667	406.491
339.3000	-0.375234	406.029
339.2000	-0.398397	405.521
339.1000	-0.296198	405.061
339.0000	-0.00806517	404.595
338.9000	0.116112	404.052
338.8000	0.0968365	403.544
338.7000	0.102393	403.032
338.6000	0.158732	402.482
338.5000	0.112529	401.997
338.4000	-0.0429767	401.631
338.3000	-0.146358	401.183
338.2000	-0.203113	400.736
338.1000	-0.190197	400.428
338.0000	-0.104823	400.026
337.9000	-0.0324987	399.621
337.8000	-0.0495741	399.341
337.7000	-0.0287557	398.977
337.6000	0.0233401	398.601
337.5000	0.167594	398.316
337.4000	0.27114	397.942
337.3000	0.298688	397.542
337.2000	0.243904	397.078
337.1000	0.231885	396.661
337.0000	0.243452	396.235
336.9000	0.169759	395.785
336.8000	0.0705996	395.387
336.7000	-0.0812301	394.986
336.6000	-0.242537	394.538
336.5000	-0.224035	394.14
336.4000	-0.260352	393.867
336.3000	-0.276028	393.497
336.2000	-0.312959	393.122
336.1000	-0.305131	392.842
336.0000	-0.238742	392.478
335.9000	-0.1122	392.097
335.8000	-0.0994844	391.674
335.7000	-0.20515	391.291
335.6000	-0.261621	390.898
335.5000	-0.290026	390.49
335.4000	-0.293969	390.132
335.3000	-0.287142	389.771
335.2000	-0.205118	389.388
335.1000	-0.192747	389.047
335.0000	-0.212899	388.821
334.9000	-0.0993844	388.505
334.8000	-0.0721625	388.175
334.7000	0.0326382	387.827
334.6000	0.0666106	387.523
334.5000	0.145815	387.21
334.4000	0.178996	386.832
334.3000	0.166281	386.481
334.2000	0.171164	386.113
334.1000	0.129182	385.719
334.0000	0.157394	385.378
333.9000	0.0928556	385.12
333.8000	0.0654663	384.775
333.7000	0.0631696	384.422
333.6000	0.0229273	384.051
333.5000	0.0949054	383.739
333.4000	0.196263	383.429
333.3000	0.264143	383.099
333.2000	0.311237	382.811
333.1000	0.461777	382.523
333.0000	0.49127	382.211
332.9000	0.478464	381.931
332.8000	0.447492	381.6
332.7000	0.334963	381.299
332.6000	0.180732	380.989
332.5000	0.0823988	380.657
332.4000	-0.0499241	380.361
332.3000	-0.204798	380.055
332.2000	-0.277119	379.702
332.1000	-0.277681	379.382
332.0000	-0.284027	379.059
331.9000	-0.283666	378.792
331.8000	-0.375456	378.524
331.7000	-0.333917	378.218
331.6000	-0.259222	377.938
331.5000	-0.112876	377.547
331.4000	-0.00905338	377.246
331.3000	0.00678754	376.982
331.2000	-0.0208876	376.68
331.1000	-0.0313955	376.406
331.0000	0.0339154	376.122
330.9000	0.13107	375.831
330.8000	0.140703	375.575
330.7000	-0.000872846	375.27
330.6000	-0.158027	375.001
330.5000	-0.230928	374.736
330.4000	-0.257699	374.46
330.3000	-0.274565	374.225
330.2000	-0.242301	373.886
330.1000	-0.250501	373.61
330.0000	-0.387635	373.356
329.9000	-0.445149	373.088
329.8000	-0.460884	372.856
329.7000	-0.461022	372.532
329.6000	-0.45143	372.272
329.5000	-0.388567	372.035
329.4000	-0.37945	371.751
329.3000	-0.366391	371.493
329.2000	-0.35227	371.137
329.1000	-0.218428	370.86
329.0000	-0.158016	370.618
328.9000	-0.104538	370.356
328.8000	-0.0492047	370.122
328.7000	-0.0104583	369.795
328.6000	0.0868463	369.555
328.5000	0.115748	369.359
328.4000	0.137438	369.127
328.3000	0.1484	368.921
328.2000	0.233675	368.638
328.1000	0.202251	368.405
328.0000	0.184158	368.194
327.9000	0.0615887	367.937
327.8000	-0.138178	367.703
327.7000	-0.23099	367.436
327.6000	-0.257007	367.252
327.5000	-0.208944	367.113
327.4000	-0.222323	366.85
327.3000	-0.222416	366.611
327.2000	-0.186307	366.333
327.1000	-0.152771	366.134
327.0000	-0.0173833	365.974
326.9000	0.0957822	365.72
326.8000	0.0437276	365.455
326.7000	0.00822068	365.146
326.6000	-0.0648849	364.956
326.5000	-0.0788983	364.827
326.4000	-0.0839904	364.573
326.3000	-0.122902	364.32
326.2000	-0.122575	364.051
326.1000	-0.114231	363.867
326.0000	-0.030313	363.576
325.9000	0.0475589	363.312
325.8000	0.12467	363.061
325.7000	0.11802	362.81
325.6000	0.14836	362.67
325.5000	0.147359	362.397
325.4000	0.277954	362.137
325.3000	0.226937	361.868
325.2000	0.128924	361.697
325.1000	0.0499424	361.575
325.0000	-0.0375777	361.302
324.9000	-0.128198	361.023
324.8000	-0.252511	360.733
324.7000	-0.360778	360.579
324.6000	-0.488193	360.491
324.5000	-0.507339	360.232
324.4000	-0.579706	359.971
324.3000	-0.626577	359.74
324.2000	-0.571153	359.619
324.1000	-0.518302	359.378
324.0000	-0.432759	359.137
323.9000	-0.33902	358.885
323.8000	-0.290406	358.654
323.7000	-0.254589	358.542
323.6000	-0.138496	358.299
323.5000	0.0116063	358.028
323.4000	0.0285093	357.752
323.3000	0.0341146	357.602
323.2000	0.00370713	357.506
323.1000	0.0275009	357.249
323.0000	0.1072	356.975
322.9000	0.108703	356.699
322.8000	0.0890811	356.56
322.7000	0.00379287	356.318
322.6000	-0.0339042	356.058
322.5000	-0.0703796	355.792
322.4000	-0.0339413	355.53
322.3000	-0.0539626	355.372
322.2000	-0.108145	355.096
322.1000	-0.13246	354.799
322.0000	-0.233951	354.5
321.9000	-0.244774	354.327
321.8000	-0.252482	354.047
321.7000	-0.250066	353.758
321.6000	-0.176916	353.461
321.5000	-0.138498	353.187
321.4000	-0.133209	353.046
321.3000	-0.178469	352.841
321.2000	-0.16033	352.64
321.1000	-0.173747	352.441
321.0000	-0.187358	352.378
320.9000	-0.198939	352.242
320.8000	-0.343154	352.102
320.7000	-0.480111	351.967
320.6000	-0.514899	351.83
320.5000	-0.488807	351.787
320.4000	-0.475844	351.629
320.3000	-0.559545	351.451
320.2000	-0.57432	351.281
320.1000	-0.551944	351.211
320.0000	-0.449824	351.051
319.9000	-0.337109	350.877
319.8000	-0.232448	350.693
319.7000	-0.206947	350.499
319.6000	-0.196737	350.289
319.5000	-0.108398	350.135
319.4000	-0.0128641	349.967
319.3000	-0.0645942	349.768
319.2000	-0.134525	349.663
319.1000	-0.212598	349.467
319.0000	-0.373405	349.256
318.9000	-0.41374	349.047
318.8000	-0.451894	348.925
318.7000	-0.441256	348.706
318.6000	-0.471938	348.478
318.5000	-0.388914	348.28
318.4000	-0.310764	348.088
318.3000	-0.282604	347.875
318.2000	-0.190041	347.717
318.1000	-0.261101	347.556
318.0000	-0.276139	347.392
317.9000	-0.285051	347.329
317.8000	-0.27528	347.21
317.7000	-0.349913	347.07
317.6000	-0.422005	346.896
317.5000	-0.507503	346.801
317.4000	-0.562077	346.645
317.3000	-0.493006	346.482
317.2000	-0.402707	346.301
317.1000	-0.392998	346.11
317.0000	-0.380191	345.875
316.9000	-0.356486	345.681
316.8000	-0.369726	345.501
316.7000	-0.310907	345.327
316.6000	-0.26777	345.152
316.5000	-0.260637	345.011
316.4000	-0.302393	344.853
316.3000	-0.29298	344.693
316.2000	-0.275119	344.539
316.1000	-0.31717	344.421
316.0000	-0.333891	344.302
315.9000	-0.398185	344.144
315.8000	-0.430067	344.038
315.7000	-0.449048	343.872
315.6000	-0.477446	343.728
315.5000	-0.503372	343.569
315.4000	-0.560186	343.468
315.3000	-0.566638	343.286
315.2000	-0.574916	343.099
315.1000	-0.563905	342.933
315.0000	-0.571196	342.777
314.9000	-0.503917	342.617
314.8000	-0.416348	342.482
314.7000	-0.379309	342.326
314.6000	-0.356484	342.169
314.5000	-0.319553	342.024
314.4000	-0.301958	341.916
314.3000	-0.250409	341.784
314.2000	-0.139203	341.652
314.1000	-0.0506117	341.48
314.0000	-0.0942383	341.327
313.9000	-0.120298	341.176
313.8000	-0.198143	341.036
313.7000	-0.279632	340.835
313.6000	-0.279615	340.656
313.5000	-0.254135	340.482
313.4000	-0.267897	340.31
313.3000	-0.386612	340.142
313.2000	-0.429653	340.001
313.1000	-0.432007	339.848
313.0000	-0.360448	339.701
312.9000	-0.269991	339.568
312.8000	-0.307783	339.465
312.7000	-0.338478	339.339
312.6000	-0.328368	339.222
312.5000	-0.383634	339.059
312.4000	-0.428647	338.91
312.3000	-0.513754	338.746
312.2000	-0.580317	338.589
312.1000	-0.633454	338.383
312.0000	-0.603938	338.194
311.9000	-0.595265	338.007
311.8000	-0.640962	337.78
311.7000	-0.609225	337.607
311.6000	-0.550708	337.433
311.5000	-0.484578	337.289
311.4000	-0.43273	337.103
311.3000	-0.403531	336.983
311.2000	-0.408253	336.86
311.1000	-0.411986	336.759
311.0000	-0.387207	336.649
310.9000	-0.401571	336.557
310.8000	-0.45093	336.454
310.7000	-0.471751	336.364
310.6000	-0.458824	336.242
310.5000	-0.431883	336.136
310.4000	-0.377569	336.037
310.3000	-0.347195	335.946
310.2000	-0.340823	335.861
310.1000	-0.349365	335.79
310.0000	-0.370561	335.707
309.9000	-0.362891	335.636
309.8000	-0.420215	335.571
309.7000	-0.505272	335.478
309.6000	-0.609988	335.401
309.5000	-0.597643	335.294
309.4000	-0.548122	335.21
309.3000	-0.541066	335.08
309.2000	-0.514434	334.978
309.1000	-0.474861	334.828
309.0000	-0.402181	334.702
308.9000	-0.321346	334.586
308.8000	-0.253442	334.484
308.7000	-0.252148	334.386
308.6000	-0.288074	334.299
308.5000	-0.311058	334.202
308.4000	-0.357082	334.09
308.3000	-0.341293	334.02
308.2000	-0.406469	333.909
308.1000	-0.480255	333.828
308.0000	-0.549422	333.729
307.9000	-0.62171	333.643
307.8000	-0.669701	333.506
307.7000	-0.662548	333.4
307.6000	-0.616473	333.286
307.5000	-0.614808	333.129
307.4000	-0.581011	333.012
307.3000	-0.464188	332.897
307.2000	-0.391531	332.804
307.1000	-0.330776	332.673
307.0000	-0.303017	332.582
306.9000	-0.312006	332.494
306.8000	-0.339761	332.437
306.7000	-0.383301	332.37
306.6000	-0.410926	332.288
306.5000	-0.436036	332.216
306.4000	-0.482779	332.094
306.3000	-0.518158	332.006
306.2000	-0.512632	331.896
306.1000	-0.539507	331.797
306.0000	-0.542773	331.656
305.9000	-0.498064	331.559
305.8000	-0.487819	331.482
305.7000	-0.465844	331.369
305.6000	-0.436831	331.294
305.5000	-0.372553	331.221
305.4000	-0.40454	331.17
305.3000	-0.364737	331.076
305.2000	-0.337777	331.012
305.1000	-0.305793	330.934
305.0000	-0.281976	330.814
304.9000	-0.305468	330.732
304.8000	-0.345394	330.629
304.7000	-0.421301	330.538
304.6000	-0.398972	330.416
304.5000	-0.398051	330.317
304.4000	-0.420225	330.234
304.3000	-0.470858	330.123
304.2000	-0.529543	330.062
304.1000	-0.533772	330.005
304.0000	-0.532806	329.97
303.9000	-0.539145	329.889
303.8000	-0.566168	329.814
303.7000	-0.625144	329.762
303.6000	-0.668218	329.666
303.5000	-0.659444	329.606
303.4000	-0.59402	329.529
303.3000	-0.572629	329.426
303.2000	-0.539559	329.326
303.1000	-0.554211	329.247
303.0000	-0.599296	329.198
302.9000	-0.577569	329.111
302.8000	-0.502805	329.041
302.7000	-0.431541	328.985
302.6000	-0.485908	328.898
302.5000	-0.574567	328.844
302.4000	-0.634531	328.785
302.3000	-0.736057	328.69
302.2000	-0.714943	328.605
302.1000	-0.691252	328.52
302.0000	-0.697664	328.462
301.9000	-0.788885	328.374
301.8000	-0.792333	328.301
301.7000	-0.69601	328.252
301.6000	-0.645756	328.166
301.5000	-0.557593	328.119
301.4000	-0.435395	328.072
301.3000	-0.395902	327.997
301.2000	-0.377429	327.931
301.1000	-0.370165	327.867
301.0000	-0.393131	327.831
300.9000	-0.435417	327.755
300.8000	-0.460638	327.677
300.7000	-0.469322	327.616
300.6000	-0.52378	327.533
300.5000	-0.546224	327.471
300.4000	-0.56039	327.427
300.3000	-0.525163	327.36
300.2000	-0.483036	327.296
300.1000	-0.458536	327.241
300.0000	-0.41533	327.18
299.9000	-0.418767	327.128
299.8000	-0.344656	327.082
299.7000	-0.340373	327.015
299.6000	-0.355766	326.953
299.5000	-0.36689	326.89
299.4000	-0.422441	326.839
299.3000	-0.450493	326.775
299.2000	-0.42167	326.729
299.1000	-0.409388	326.697
299.0000	-0.402652	326.637
298.9000	-0.444918	326.594
298.8000	-0.461719	326.562
298.7000	-0.496891	326.509
298.6000	-0.513291	326.464
298.5000	-0.546748	326.416
298.4000	-0.587571	326.355
298.3000	-0.571712	326.3
298.2000	-0.534047	326.247
298.1000	-0.536883	326.19
298.0000	-0.537521	326.138
297.9000	-0.537193	326.096
297.8000	-0.528654	326.029
297.7000	-0.504872	325.976
297.6000	-0.44237	325.94
297.5000	-0.448169	325.877
297.4000	-0.543044	325.827
297.3000	-0.627299	325.784
297.2000	-0.643214	325.719
297.1000	-0.640396	325.666
297.0000	-0.658382	325.621
296.9000	-0.662115	325.557
296.8000	-0.6987	325.506
296.7000	-0.735297	325.469
296.6000	-0.72605	325.441
296.5000	-0.649213	325.398
296.4000	-0.644023	325.361
296.3000	-0.646324	325.336
296.2000	-0.628539	325.294
296.1000	-0.588944	325.263
296.0000	-0.538258	325.24
295.9000	-0.494779	325.195
295.8000	-0.484554	325.129
295.7000	-0.567625	325.088
295.6000	-0.614681	325.047
295.5000	-0.627111	324.991
295.4000	-0.631203	324.923
295.3000	-0.638353	324.881
295.2000	-0.688996	324.825
295.1000	-0.712448	324.765
295.0000	-0.743966	324.731
294.9000	-0.728308	324.684
294.8000	-0.716789	324.622
294.7000	-0.671891	324.585
294.6000	-0.636376	324.556
294.5000	-0.651807	324.513
294.4000	-0.630412	324.484
294.3000	-0.632298	324.456
294.2000	-0.686238	324.409
294.1000	-0.678251	324.377
294.0000	-0.654514	324.35
293.9000	-0.643945	324.303
293.8000	-0.659088	324.272
293.7000	-0.662563	324.244
293.6000	-0.659097	324.191
293.5000	-0.707299	324.127
293.4000	-0.684189	324.095
293.3000	-0.652336	324.049
293.2000	-0.654365	323.995
293.1000	-0.678866	323.97
293.0000	-0.72901	323.925
292.9000	-0.714753	323.873
292.8000	-0.689846	323.849
292.7000	-0.621836	323.828
292.6000	-0.583893	323.788
292.5000	-0.57277	323.737
292.4000	-0.618655	323.709
292.3000	-0.592349	323.666
292.2000	-0.535448	323.619
292.1000	-0.49759	323.597
292.0000	-0.501832	323.558
291.9000	-0.518447	323.51
291.8000	-0.490647	323.467
291.7000	-0.497874	323.448
291.6000	-0.472643	323.409
291.5000	-0.431488	323.365
291.4000	-0.477293	323.339
291.3000	-0.530134	323.289
291.2000	-0.633806	323.222
291.1000	-0.635898	323.16
291.0000	-0.66475	323.115
290.9000	-0.660592	323.049
290.8000	-0.651669	322.967
290.7000	-0.69589	322.879
290.6000	-0.70444	322.78
290.5000	-0.656818	322.665
290.4000	-0.58	322.545
290.3000	-0.531102	322.437
290.2000	-0.520327	322.306
290.1000	-0.479121	322.162
290.0000	-0.453047	322.031
289.9000	-0.449954	321.933
289.8000	-0.422662	321.844
289.7000	-0.415174	321.779
289.6000	-0.437173	321.746
289.5000	-0.483811	321.751
289.4000	-0.544012	321.777
289.3000	-0.58262	321.835
289.2000	-0.61013	321.914
289.1000	-0.585816	322.018
289.0000	-0.571918	322.118
288.9000	-0.583581	322.214
288.8000	-0.601277	322.303
288.7000	-0.539139	322.383
288.6000	-0.50551	322.443
288.5000	-0.45461	322.489
288.4000	-0.42487	322.52
288.3000	-0.435436	322.538
288.2000	-0.448078	322.535
288.1000	-0.460908	322.523
288.0000	-0.485175	322.5
287.9000	-0.533176	322.463
287.8000	-0.509312	322.442
287.7000	-0.487024	322.417
287.6000	-0.53781	322.391
287.5000	-0.643122	322.35
287.4000	-0.721213	322.329
287.3000	-0.76759	322.315
287.2000	-0.806702	322.296
287.1000	-0.841978	322.284
287.0000	-0.909784	322.245
286.9000	-0.974828	322.224
286.8000	-0.967733	322.21
286.7000	-0.933698	322.196
286.6000	-0.842861	322.174
286.5000	-0.783991	322.164
286.4000	-0.719553	322.161
286.3000	-0.645693	322.161
286.2000	-0.541756	322.162
286.1000	-0.513633	322.153
286.0000	-0.558127	322.154
285.9000	-0.605317	322.145
285.8000	-0.591198	322.141
285.7000	-0.593588	322.117
285.6000	-0.586099	322.093
285.5000	-0.597574	322.089
285.4000	-0.617539	322.084
285.3000	-0.582697	322.088
285.2000	-0.52992	322.064
285.1000	-0.505381	322.049
285.0000	-0.513762	322.055
284.9000	-0.50036	322.052
284.8000	-0.473388	322.057
284.7000	-0.505117	322.036
284.6000	-0.565628	322.019
284.5000	-0.652535	322.019
284.4000	-0.701878	322.02
284.3000	-0.669178	322.034
284.2000	-0.615145	322.018
284.1000	-0.660002	322.01
284.0000	-0.69845	321.99
283.9000	-0.650904	321.991
283.8000	-0.579345	322.002
283.7000	-0.535036	321.991
283.6000	-0.559108	321.982
283.5000	-0.63541	321.964
283.4000	-0.686815	321.956
283.3000	-0.668307	321.969
283.2000	-0.676116	321.981
283.1000	-0.705838	321.99
283.0000	-0.734456	321.981
282.9000	-0.749189	321.977
282.8000	-0.706457	321.974
282.7000	-0.67447	321.989
282.6000	-0.57851	322.007
282.5000	-0.53256	322.011
282.4000	-0.514828	322.007
282.3000	-0.513551	322.002
282.2000	-0.461262	322.003
282.1000	-0.406238	322.022
282.0000	-0.379588	322.036
281.9000	-0.374615	322.04
281.8000	-0.417529	322.035
281.7000	-0.496551	322.026
281.6000	-0.560296	322.021
281.5000	-0.581319	322.018
281.4000	-0.649988	322.031
281.3000	-0.73848	322.034
281.2000	-0.829961	322.031
281.1000	-0.844487	322.028
281.0000	-0.842801	322.025
280.9000	-0.856929	322.021
280.8000	-0.87527	322.015
280.7000	-0.869208	322.015
280.6000	-0.846182	322.023
280.5000	-0.804421	322.021
280.4000	-0.734124	322.019
280.3000	-0.710848	322.012
280.2000	-0.688024	322.004
280.1000	-0.650506	321.997
280.0000	-0.618385	321.991
279.9000	-0.609621	321.984
279.8000	-0.633431	321.96
279.7000	-0.682808	321.947
279.6000	-0.686371	321.939
279.5000	-0.703488	321.93
279.4000	-0.719944	321.925
279.3000	-0.74945	321.922
279.2000	-0.780098	321.921
279.1000	-0.781176	321.923
