TITLE	ACE2_D2_0.4uM
DATA TYPE	
ORIGIN	JASCO
OWNER	
DATE	24/02/26
TIME	16:13:34
SPECTROMETER/DATA SYSTEM	
LOCALE	1033
RESOLUTION	
DELTAX	-0.1
XUNITS	NANOMETERS
YUNITS	Mol. Ellip.
Y2UNITS	HT [V]
FIRSTX	  350.0000
LASTX	  190.0000
NPOINTS	    1601
FIRSTY	165266.67188
MAXY	2704732.50000
MINY	-850521.31250
XYDATA
350.0000	165267	468.711
349.9000	156551	468.141
349.8000	139684	467.298
349.7000	179000	466.452
349.6000	172540	465.839
349.5000	53368.1	465.289
349.4000	-51547.5	464.421
349.3000	-190722	463.803
349.2000	-225804	463.28
349.1000	-250558	462.465
349.0000	-243669	461.851
348.9000	-359876	461.292
348.8000	-462571	460.438
348.7000	-469125	459.578
348.6000	-418280	458.968
348.5000	-342277	458.447
348.4000	-243493	457.611
348.3000	-236310	456.982
348.2000	-180908	456.438
348.1000	-102810	455.617
348.0000	-52987.4	455.008
347.9000	2842.71	454.475
347.8000	55267.8	453.678
347.7000	90151.2	452.867
347.6000	117190	452.288
347.5000	145539	451.799
347.4000	145799	451.013
347.3000	171908	450.423
347.2000	191110	449.913
347.1000	248902	449.146
347.0000	253403	448.568
346.9000	171917	448.062
346.8000	101532	447.29
346.7000	49563.9	446.513
346.6000	-30514.5	445.938
346.5000	-130670	445.2
346.4000	-240673	444.456
346.3000	-298359	443.901
346.2000	-349966	443.173
346.1000	-360535	442.429
346.0000	-317056	441.895
345.9000	-295722	441.438
345.8000	-248895	440.718
345.7000	-258536	440.185
345.6000	-233390	439.727
345.5000	-190854	439.039
345.4000	-134195	438.532
345.3000	-146421	438.093
345.2000	-152734	437.404
345.1000	-146307	436.694
345.0000	-144101	436.174
344.9000	-121908	435.495
344.8000	-92602.3	434.799
344.7000	-67982.2	434.266
344.6000	-67923.5	433.6
344.5000	-52855.7	432.931
344.4000	-33687.8	432.439
344.3000	-16782.6	431.797
344.2000	-7901.25	431.144
344.1000	-8184.31	430.655
344.0000	26326	430.031
343.9000	88693.5	429.4
343.8000	93588.8	428.924
343.7000	133335	428.507
343.6000	152615	427.873
343.5000	98119.1	427.402
343.4000	53897.9	427.003
343.3000	41401.4	426.373
343.2000	-11638.9	425.909
343.1000	-102274	425.504
343.0000	-186864	424.914
342.9000	-241351	424.316
342.8000	-256733	423.875
342.7000	-266764	423.275
342.6000	-191548	422.674
342.5000	-155728	422.233
342.4000	-76443.5	421.689
342.3000	-4274.24	421.136
342.2000	44199.4	420.713
342.1000	31880.7	420.157
342.0000	-55756.1	419.586
341.9000	-106691	419.18
341.8000	-113982	418.652
341.7000	-144247	418.112
341.6000	-173692	417.705
341.5000	-180954	417.161
341.4000	-164745	416.606
341.3000	-120474	416.191
341.2000	-89325.2	415.657
341.1000	-51081.6	415.116
341.0000	-63836.2	414.715
340.9000	-116535	414.178
340.8000	-183938	413.628
340.7000	-239718	413.22
340.6000	-265319	412.719
340.5000	-306508	412.21
340.4000	-291340	411.835
340.3000	-278323	411.325
340.2000	-251589	410.803
340.1000	-186677	410.426
340.0000	-128091	409.951
339.9000	-71135.2	409.459
339.8000	-41230	409.08
339.7000	-11196.9	408.598
339.6000	19229.6	408.104
339.5000	75814.3	407.749
339.4000	117813	407.287
339.3000	106244	406.806
339.2000	91132.6	406.279
339.1000	98933.2	405.815
339.0000	87793.5	405.347
338.9000	65426.1	404.832
338.8000	68526.5	404.375
338.7000	57840.5	403.913
338.6000	86250.8	403.402
338.5000	134547	402.947
338.4000	180816	402.611
338.3000	186772	402.202
338.2000	180760	401.785
338.1000	182630	401.479
338.0000	213438	401.068
337.9000	178726	400.646
337.8000	104914	400.348
337.7000	54875.7	399.958
337.6000	-2645.11	399.561
337.5000	-51196.5	399.259
337.4000	-71875.3	398.847
337.3000	-106784	398.423
337.2000	-157655	397.966
337.1000	-169865	397.564
337.0000	-164058	397.157
336.9000	-161610	396.724
336.8000	-180952	396.339
336.7000	-201268	395.943
336.6000	-217516	395.517
336.5000	-227345	395.138
336.4000	-217120	394.868
336.3000	-209687	394.502
336.2000	-211873	394.127
336.1000	-186214	393.849
336.0000	-186984	393.492
335.9000	-158316	393.121
335.8000	-152806	392.706
335.7000	-160891	392.335
335.6000	-157990	391.959
335.5000	-182812	391.558
335.4000	-177738	391.207
335.3000	-142426	390.853
335.2000	-105529	390.474
335.1000	-88485.7	390.134
335.0000	-63106.5	389.905
334.9000	5667.11	389.589
334.8000	45045.5	389.258
334.7000	73551.7	388.892
334.6000	74851.7	388.565
334.5000	44178	388.23
334.4000	12608.6	387.853
334.3000	29462.2	387.518
334.2000	20577.2	387.174
334.1000	-28104.9	386.795
334.0000	-52680.2	386.465
333.9000	-37883	386.231
333.8000	28484.1	385.926
333.7000	56048.3	385.605
333.6000	21791.3	385.239
333.5000	-29207.9	384.912
333.4000	-68087.3	384.58
333.3000	-53483.8	384.233
333.2000	-45158.4	383.928
333.1000	-48439.8	383.618
333.0000	-83521.8	383.284
332.9000	-148681	382.983
332.8000	-151740	382.654
332.7000	-110466	382.376
332.6000	-80769.1	382.092
332.5000	-83649.7	381.775
332.4000	-68802.6	381.498
332.3000	-36657.2	381.214
332.2000	18669.6	380.9
332.1000	48186.2	380.614
332.0000	93433.4	380.293
331.9000	77506.3	380.013
331.8000	70798.8	379.728
331.7000	63887.3	379.42
331.6000	63506.3	379.143
331.5000	37192.3	378.742
331.4000	-43847.7	378.413
331.3000	-105224	378.116
331.2000	-144747	377.819
331.1000	-157123	377.563
331.0000	-140703	377.298
330.9000	-133823	377.008
330.8000	-128835	376.747
330.7000	-124634	376.462
330.6000	-88221	376.218
330.5000	-23198.4	375.976
330.4000	29867.8	375.693
330.3000	18774.2	375.43
330.2000	-7656.35	375.071
330.1000	-12840.5	374.782
330.0000	-6094.61	374.526
329.9000	-4451.75	374.229
329.8000	-33141.3	373.968
329.7000	-52596	373.619
329.6000	-69979.3	373.346
329.5000	-52382.2	373.117
329.4000	-40829.7	372.843
329.3000	-47164.9	372.6
329.2000	-60594.2	372.263
329.1000	-57361.9	372.013
329.0000	-70229.9	371.803
328.9000	-97105.7	371.55
328.8000	-92455.8	371.322
328.7000	-110463	371.019
328.6000	-100033	370.796
328.5000	-92114	370.611
328.4000	-93399	370.359
328.3000	-79331	370.132
328.2000	-70933.5	369.873
328.1000	-30724.6	369.693
328.0000	-22036	369.545
327.9000	-19000.2	369.272
327.8000	-32920.8	369.011
327.7000	-46811.9	368.759
327.6000	-71662.1	368.609
327.5000	-93642.9	368.506
327.4000	-101306	368.224
327.3000	-92569	367.936
327.2000	-80472.6	367.651
327.1000	-79034.4	367.491
327.0000	-57649.7	367.394
326.9000	-25798.3	367.12
326.8000	-24611.2	366.816
326.7000	-5792.49	366.529
326.6000	7136.79	366.386
326.5000	-23907.2	366.314
326.4000	-74902.1	366.034
326.3000	-111738	365.735
326.2000	-164751	365.466
326.1000	-186780	365.318
326.0000	-133037	365.032
325.9000	-114578	364.724
325.8000	-131058	364.402
325.7000	-117621	364.128
325.6000	-101689	364.002
325.5000	-78096.3	363.736
325.4000	-44787.6	363.442
325.3000	-31917.1	363.129
325.2000	-31424.2	363.013
325.1000	-34812.4	362.979
325.0000	-46206.2	362.747
324.9000	-50901.8	362.472
324.8000	-48979.7	362.205
324.7000	-36286.9	362.102
324.6000	-10428.9	362.079
324.5000	-24743.9	361.835
324.4000	-52445	361.548
324.3000	-76179.3	361.267
324.2000	-73631.8	361.127
324.1000	-54471.1	360.864
324.0000	-49781.5	360.569
323.9000	-85010.5	360.245
323.8000	-124113	359.936
323.7000	-123045	359.783
323.6000	-100389	359.546
323.5000	-103156	359.284
323.4000	-116982	359.03
323.3000	-114810	358.926
323.2000	-102114	358.89
323.1000	-97790.8	358.704
323.0000	-74656.4	358.5
322.9000	-82098.6	358.261
322.8000	-92499.8	358.132
322.7000	-88470.2	357.89
322.6000	-81459.6	357.616
322.5000	-63584.1	357.317
322.4000	-61065.7	357.016
322.3000	-79217.3	356.812
322.2000	-72478.7	356.474
322.1000	-43578.6	356.146
322.0000	-35091.7	355.836
321.9000	-28552.5	355.647
321.8000	-30292.8	355.407
321.7000	-30755.6	355.17
321.6000	-48670.5	354.93
321.5000	-29770.2	354.697
321.4000	-8323.42	354.61
321.3000	-13540.1	354.489
321.2000	-9381.36	354.359
321.1000	-29292.8	354.19
321.0000	-66284.9	354.115
320.9000	-88556.4	353.972
320.8000	-122334	353.824
320.7000	-134872	353.665
320.6000	-145317	353.501
320.5000	-151553	353.412
320.4000	-160531	353.219
320.3000	-151714	353.043
320.2000	-114764	352.854
320.1000	-68756.9	352.745
320.0000	-41322.3	352.588
319.9000	-4115.3	352.442
319.8000	14195	352.247
319.7000	9599.3	352.043
319.6000	1799.52	351.849
319.5000	-27231.6	351.702
319.4000	-55641.4	351.564
319.3000	-89158.4	351.373
319.2000	-118746	351.243
319.1000	-133554	351.052
319.0000	-158343	350.887
318.9000	-153446	350.687
318.8000	-143691	350.547
318.7000	-129068	350.322
318.6000	-80996.7	350.091
318.5000	-38758.3	349.873
318.4000	-19863.1	349.668
318.3000	-23326.4	349.472
318.2000	-30013.8	349.309
318.1000	-26975	349.181
318.0000	-17560.8	349.011
317.9000	-17424.3	348.919
317.8000	-34340.9	348.804
317.7000	-65489.7	348.704
317.6000	-101193	348.537
317.5000	-107556	348.409
317.4000	-120088	348.238
317.3000	-120108	348.06
317.2000	-128476	347.857
317.1000	-118909	347.667
317.0000	-99031.6	347.439
316.9000	-93924.7	347.226
316.8000	-75827	347.028
316.7000	-53747.1	346.851
316.6000	-22317	346.685
316.5000	-22923.5	346.533
316.4000	-23408	346.362
316.3000	-40834	346.21
316.2000	-55905.4	346.082
316.1000	-68045.8	345.988
316.0000	-89583.6	345.922
315.9000	-93398.5	345.789
315.8000	-118689	345.669
315.7000	-132816	345.51
315.6000	-144520	345.395
315.5000	-153772	345.228
315.4000	-151289	345.084
315.3000	-136660	344.873
315.2000	-125659	344.65
315.1000	-133520	344.443
315.0000	-96950.3	344.267
314.9000	-57425.4	344.103
314.8000	-42536.2	343.955
314.7000	-28582.5	343.798
314.6000	-38023.1	343.664
314.5000	-60470.1	343.542
314.4000	-48500.6	343.449
314.3000	-25491.1	343.31
314.2000	-30299.6	343.179
314.1000	-49181.6	343.027
314.0000	-55120.8	342.879
313.9000	-49367	342.701
313.8000	-61560.6	342.54
313.7000	-45026.1	342.328
313.6000	-34934	342.12
313.5000	-38953.1	341.927
313.4000	-63907.4	341.755
313.3000	-87450.4	341.602
313.2000	-106189	341.458
313.1000	-128140	341.301
313.0000	-138227	341.169
312.9000	-143719	341.056
312.8000	-152128	340.97
312.7000	-136138	340.839
312.6000	-136608	340.712
312.5000	-123026	340.557
312.4000	-101011	340.398
312.3000	-81696.6	340.212
312.2000	-74999.5	340.04
312.1000	-70680.7	339.819
312.0000	-72336.6	339.601
311.9000	-89626.8	339.395
311.8000	-78001.1	339.206
311.7000	-87005.4	339.047
311.6000	-115082	338.84
311.5000	-99494.9	338.692
311.4000	-85587.1	338.544
311.3000	-63490	338.45
311.2000	-31253.8	338.328
311.1000	-12790.4	338.24
311.0000	-9861.5	338.148
310.9000	3020.48	338.061
310.8000	51281.2	337.956
310.7000	42472.6	337.869
310.6000	38565.1	337.752
310.5000	52485.4	337.646
310.4000	32943.2	337.54
310.3000	15185.5	337.454
310.2000	10088.3	337.376
310.1000	8297.47	337.3
310.0000	-12378.9	337.214
309.9000	-7312.01	337.149
309.8000	-14792.4	337.097
309.7000	-40481.8	336.99
309.6000	-51133	336.908
309.5000	-51537.6	336.814
309.4000	-52838.6	336.724
309.3000	-43316.9	336.566
309.2000	-16808.1	336.448
309.1000	-28129.6	336.301
309.0000	-40046.9	336.163
308.9000	-40765.4	336.032
308.8000	-39082.1	335.926
308.7000	-32073.7	335.828
308.6000	-24791.7	335.739
308.5000	-33821.1	335.631
308.4000	-63708.8	335.539
308.3000	-58556.9	335.48
308.2000	-44943.5	335.358
308.1000	-35589.1	335.272
308.0000	-32393.4	335.185
307.9000	-22257.7	335.108
307.8000	-26745.1	334.952
307.7000	-51229.9	334.841
307.6000	-68359.4	334.729
307.5000	-67303.5	334.559
307.4000	-67632.3	334.441
307.3000	-84553.3	334.348
307.2000	-82603.7	334.265
307.1000	-106671	334.112
307.0000	-135226	334.011
306.9000	-127088	333.941
306.8000	-95976.5	333.894
306.7000	-83305.1	333.819
306.6000	-93271.4	333.747
306.5000	-95781.2	333.677
306.4000	-75359.1	333.541
306.3000	-45449.8	333.453
306.2000	-4782.36	333.356
306.1000	-10555.5	333.256
306.0000	-23519.6	333.104
305.9000	-45649	333.003
305.8000	-58887.5	332.93
305.7000	-46821.6	332.8
305.6000	-57779.2	332.715
305.5000	-95555.1	332.651
305.4000	-133489	332.61
305.3000	-129763	332.51
305.2000	-106822	332.445
305.1000	-84406.3	332.385
305.0000	-60143	332.264
304.9000	-61724.6	332.188
304.8000	-65792.6	332.106
304.7000	-29731.2	332.024
304.6000	-3559.37	331.895
304.5000	62.0524	331.806
304.4000	-12636.3	331.741
304.3000	-28926.8	331.62
304.2000	-49466.2	331.547
304.1000	-49376.7	331.497
304.0000	-44073.5	331.464
303.9000	-49214.9	331.373
303.8000	-67782.6	331.302
303.7000	-80197.7	331.257
303.6000	-83288.3	331.152
303.5000	-90727.7	331.086
303.4000	-84169.8	331.018
303.3000	-75209.3	330.909
303.2000	-90078.7	330.799
303.1000	-117357	330.722
303.0000	-148932	330.673
302.9000	-155545	330.571
302.8000	-176770	330.5
302.7000	-184569	330.454
302.6000	-190550	330.365
302.5000	-210396	330.312
302.4000	-200960	330.266
302.3000	-171433	330.176
302.2000	-150723	330.086
302.1000	-142033	330.007
302.0000	-154700	329.952
301.9000	-125762	329.864
301.8000	-110236	329.799
301.7000	-112849	329.748
301.6000	-111907	329.658
301.5000	-112968	329.608
301.4000	-107082	329.569
301.3000	-88112.1	329.5
301.2000	-74428.1	329.438
301.1000	-59335.8	329.384
301.0000	-64161.7	329.358
300.9000	-47757.7	329.292
300.8000	-39572.1	329.228
300.7000	-28708.4	329.174
300.6000	-28099.3	329.097
300.5000	-27888.2	329.034
300.4000	-21806.8	328.991
300.3000	-34610	328.913
300.2000	-31016.3	328.837
300.1000	-31156.7	328.78
300.0000	-41116.1	328.718
299.9000	-66038.3	328.666
299.8000	-91171.8	328.618
299.7000	-113170	328.554
299.6000	-122955	328.497
299.5000	-112121	328.443
299.4000	-111983	328.404
299.3000	-113347	328.338
299.2000	-113493	328.287
299.1000	-94172.7	328.251
299.0000	-75566.9	328.187
298.9000	-68094.4	328.14
298.8000	-70601.7	328.106
298.7000	-67044.6	328.05
298.6000	-64995.8	328.001
298.5000	-76886	327.957
298.4000	-89832.1	327.899
298.3000	-80951.2	327.849
298.2000	-76214.3	327.8
298.1000	-61781.1	327.747
298.0000	-42355.6	327.698
297.9000	-33432.3	327.658
297.8000	-36062.4	327.596
297.7000	-56120.6	327.543
297.6000	-61034.4	327.509
297.5000	-66619.9	327.45
297.4000	-87752.8	327.406
297.3000	-101901	327.373
297.2000	-113416	327.313
297.1000	-130286	327.266
297.0000	-146287	327.223
296.9000	-146978	327.164
296.8000	-130402	327.116
296.7000	-118792	327.077
296.6000	-117827	327.05
296.5000	-122691	327.005
296.4000	-119427	326.975
296.3000	-112032	326.957
296.2000	-120014	326.919
296.1000	-107459	326.892
296.0000	-90877	326.877
295.9000	-86347.5	326.842
295.8000	-95428	326.786
295.7000	-95853.7	326.751
295.6000	-95089.2	326.715
295.5000	-98138.9	326.657
295.4000	-92428.3	326.596
295.3000	-80682.4	326.562
295.2000	-73375.7	326.511
295.1000	-76079.8	326.454
295.0000	-78595.2	326.426
294.9000	-68306	326.383
294.8000	-83545.2	326.324
294.7000	-110134	326.29
294.6000	-108231	326.264
294.5000	-113296	326.222
294.4000	-126774	326.191
294.3000	-132541	326.166
294.2000	-117661	326.121
294.1000	-103723	326.09
294.0000	-92901.1	326.071
293.9000	-84895.6	326.029
293.8000	-78213.2	326.001
293.7000	-66960.4	325.983
293.6000	-62855.5	325.94
293.5000	-82050.1	325.889
293.4000	-104319	325.867
293.3000	-116696	325.832
293.2000	-116372	325.788
293.1000	-90516.2	325.777
293.0000	-71390	325.742
292.9000	-79879.3	325.7
292.8000	-116853	325.682
292.7000	-119093	325.662
292.6000	-109595	325.633
292.5000	-85191.3	325.585
292.4000	-99170.9	325.559
292.3000	-112410	325.517
292.2000	-141235	325.473
292.1000	-161144	325.451
292.0000	-157063	325.417
291.9000	-162259	325.373
291.8000	-159361	325.334
291.7000	-157603	325.325
291.6000	-147061	325.293
291.5000	-137752	325.255
291.4000	-140205	325.237
291.3000	-120537	325.194
291.2000	-105949	325.135
291.1000	-68517.6	325.077
291.0000	-51320.1	325.032
290.9000	-63906.9	324.96
290.8000	-68434.6	324.87
290.7000	-83616.1	324.777
290.6000	-63874.3	324.677
290.5000	-49954.5	324.555
290.4000	-44691.2	324.429
290.3000	-68043	324.32
290.2000	-87200.4	324.189
290.1000	-116778	324.055
290.0000	-122815	323.939
289.9000	-118116	323.863
289.8000	-110749	323.798
289.7000	-112850	323.756
289.6000	-109133	323.758
289.5000	-107510	323.796
289.4000	-96044.2	323.851
289.3000	-67777.5	323.938
289.2000	-53530.4	324.038
289.1000	-44521.3	324.154
289.0000	-47338.1	324.259
288.9000	-55950.2	324.359
288.8000	-64841.2	324.449
288.7000	-51319.1	324.527
288.6000	-49196.4	324.581
288.5000	-42221.6	324.628
288.4000	-39076	324.652
288.3000	-40883.6	324.667
288.2000	-66795.6	324.67
288.1000	-90104.4	324.663
288.0000	-103842	324.649
287.9000	-105356	324.615
287.8000	-101398	324.599
287.7000	-95131.2	324.579
287.6000	-107504	324.556
287.5000	-116594	324.53
287.4000	-107107	324.518
287.3000	-84046.2	324.499
287.2000	-94625.3	324.484
287.1000	-97325.4	324.467
287.0000	-93645.5	324.436
286.9000	-100992	324.42
286.8000	-96530.9	324.41
286.7000	-101381	324.401
286.6000	-102586	324.369
286.5000	-100769	324.358
286.4000	-77779.4	324.358
286.3000	-61344.4	324.356
286.2000	-62301.1	324.36
286.1000	-69318.1	324.345
286.0000	-67215.5	324.341
285.9000	-76557.9	324.337
285.8000	-76004.8	324.333
285.7000	-83121.5	324.321
285.6000	-92679.3	324.297
285.5000	-103421	324.295
285.4000	-108264	324.301
285.3000	-112592	324.303
285.2000	-132546	324.294
285.1000	-133050	324.277
285.0000	-120982	324.284
284.9000	-106145	324.288
284.8000	-100277	324.291
284.7000	-109692	324.284
284.6000	-117356	324.264
284.5000	-128050	324.266
284.4000	-112143	324.278
284.3000	-108552	324.29
284.2000	-97904.5	324.291
284.1000	-116610	324.278
284.0000	-109015	324.268
283.9000	-88327.3	324.277
283.8000	-69668.8	324.291
283.7000	-58132.2	324.295
283.6000	-68474.8	324.282
283.5000	-50597.9	324.279
283.4000	-50125.9	324.27
283.3000	-47508	324.283
283.2000	-36435.2	324.307
283.1000	-40297.7	324.31
283.0000	-35007.2	324.306
282.9000	-14134	324.303
282.8000	6941.73	324.309
282.7000	11514.5	324.329
282.6000	6378.17	324.349
282.5000	27142.8	324.365
282.4000	35885.1	324.366
282.3000	48582.2	324.372
282.2000	55746.5	324.376
282.1000	40568.5	324.397
282.0000	11751.6	324.414
281.9000	-4442.85	324.418
281.8000	-23774.5	324.418
281.7000	-58339.4	324.411
281.6000	-82882.7	324.412
281.5000	-86327.9	324.412
281.4000	-98193.9	324.431
281.3000	-97692.1	324.443
281.2000	-75109.1	324.442
281.1000	-59859.2	324.438
281.0000	-63963.1	324.433
280.9000	-41260	324.433
280.8000	-20747.4	324.43
280.7000	-15122	324.428
280.6000	-30177.1	324.432
280.5000	-32959.2	324.426
280.4000	-34274.5	324.422
280.3000	-46395.1	324.417
280.2000	-19057.7	324.412
280.1000	-6803.89	324.408
280.0000	-4493.97	324.401
279.9000	-6493.38	324.392
279.8000	11847.9	324.374
279.7000	38298.3	324.368
279.6000	31855.8	324.362
279.5000	29058.1	324.362
279.4000	-2089.95	324.359
279.3000	-35303.5	324.353
279.2000	-36868.3	324.355
279.1000	-31858.8	324.356
279.0000	-21367.1	324.36
278.9000	-7163.49	324.351
278.8000	3595.48	324.363
278.7000	18271.4	324.374
278.6000	35784.4	324.389
278.5000	53207.1	324.409
278.4000	68140.9	324.426
278.3000	58521.5	324.445
278.2000	31371.8	324.463
278.1000	-2814.48	324.48
278.0000	-32225	324.485
277.9000	-67402.4	324.479
277.8000	-85075.9	324.474
277.7000	-75314.8	324.472
277.6000	-53743	324.491
277.5000	-39721.9	324.507
277.4000	-37770.3	324.52
277.3000	-36351.8	324.535
277.2000	-37522.1	324.545
277.1000	-27111.6	324.556
277.0000	-37916.6	324.569
276.9000	-44730.4	324.584
276.8000	-51790.1	324.578
276.7000	-64587.1	324.568
276.6000	-77875	324.563
276.5000	-86408.7	324.56
276.4000	-93744.9	324.557
276.3000	-77793.1	324.555
276.2000	-54084.5	324.559
276.1000	-30855.8	324.567
276.0000	-28243.3	324.592
275.9000	-29583.2	324.615
275.8000	-4358.16	324.638
275.7000	22682.2	324.659
275.6000	44414.5	324.684
275.5000	52552.8	324.709
275.4000	52145.6	324.734
275.3000	52776.6	324.753
