TITLE	ACE2
DATA TYPE	
ORIGIN	JASCO
OWNER	
DATE	24/04/08
TIME	16:35:18
SPECTROMETER/DATA SYSTEM	
LOCALE	1033
RESOLUTION	
DELTAX	-0.1
XUNITS	NANOMETERS
YUNITS	Mol. Ellip.
Y2UNITS	HT [V]
FIRSTX	  350.0000
LASTX	  190.0000
NPOINTS	    1601
FIRSTY	-4908648.00000
MAXY	21694992.00000
MINY	-11081850.00000
XYDATA
350.0000	-4.90865E+006	498.835
349.9000	-5.07593E+006	498.228
349.8000	-5.54927E+006	497.326
349.7000	-6.41039E+006	496.403
349.6000	-6.96193E+006	495.733
349.5000	-6.38547E+006	495.161
349.4000	-6.82841E+006	494.277
349.3000	-5.95841E+006	493.669
349.2000	-4.67383E+006	493.162
349.1000	-4.38903E+006	492.329
349.0000	-4.14095E+006	491.703
348.9000	-3.65534E+006	491.162
348.8000	-4.16458E+006	490.321
348.7000	-3.87125E+006	489.47
348.6000	-3.76216E+006	488.859
348.5000	-3.37298E+006	488.329
348.4000	-3.61347E+006	487.448
348.3000	-3.36282E+006	486.793
348.2000	-2.63475E+006	486.227
348.1000	-2.27198E+006	485.36
348.0000	-1.65418E+006	484.698
347.9000	-736163	484.121
347.8000	-768648	483.257
347.7000	-1.35077E+006	482.364
347.6000	-984101	481.738
347.5000	-227756	481.229
347.4000	192195	480.423
347.3000	-611044	479.812
347.2000	-528072	479.302
347.1000	-1.35553E+006	478.546
347.0000	-2.20101E+006	477.99
346.9000	-1.53901E+006	477.529
346.8000	-1.00356E+006	476.798
346.7000	-1.94262E+006	476.036
346.6000	-2.72756E+006	475.476
346.5000	-2.0955E+006	474.736
346.4000	-1.30865E+006	473.98
346.3000	-1.19086E+006	473.384
346.2000	-290751	472.611
346.1000	545716	471.823
346.0000	477126	471.23
345.9000	1.7521E+006	470.721
345.8000	2.68049E+006	469.926
345.7000	2.06777E+006	469.336
345.6000	1.36163E+006	468.835
345.5000	2.12663E+006	468.13
345.4000	2.45268E+006	467.614
345.3000	1.81277E+006	467.17
345.2000	2.0767E+006	466.466
345.1000	1.30263E+006	465.752
345.0000	135694	465.228
344.9000	-230074	464.573
344.8000	-71647.3	463.905
344.7000	-199355	463.385
344.6000	-1.0447E+006	462.694
344.5000	-2.39595E+006	461.976
344.4000	-2.93453E+006	461.448
344.3000	-3.19175E+006	460.781
344.2000	-3.57535E+006	460.099
344.1000	-3.71504E+006	459.583
344.0000	-4.33382E+006	458.905
343.9000	-5.16223E+006	458.218
343.8000	-5.50972E+006	457.723
343.7000	-4.48144E+006	457.32
343.6000	-3.07383E+006	456.696
343.5000	-2.87873E+006	456.234
343.4000	-2.50265E+006	455.844
343.3000	-2.05044E+006	455.205
343.2000	-1.46144E+006	454.742
343.1000	-488835	454.351
343.0000	233063	453.775
342.9000	403240	453.174
342.8000	-529397	452.711
342.7000	-687498	452.088
342.6000	-769693	451.449
342.5000	-1.24744E+006	450.98
342.4000	-1.88893E+006	450.397
342.3000	-2.1964E+006	449.806
342.2000	-2.43928E+006	449.343
342.1000	-2.98802E+006	448.736
342.0000	-2.89623E+006	448.134
341.9000	-3.04913E+006	447.709
341.8000	-3.07162E+006	447.149
341.7000	-2.76577E+006	446.582
341.6000	-1.77208E+006	446.163
341.5000	-2.08649E+006	445.627
341.4000	-2.74913E+006	445.08
341.3000	-2.97585E+006	444.676
341.2000	-3.33977E+006	444.111
341.1000	-3.34348E+006	443.534
341.0000	-3.65311E+006	443.097
340.9000	-3.61087E+006	442.539
340.8000	-3.98478E+006	441.961
340.7000	-3.71919E+006	441.508
340.6000	-3.16628E+006	440.948
340.5000	-2.82585E+006	440.382
340.4000	-2.00256E+006	439.975
340.3000	-1.43502E+006	439.443
340.2000	-824130	438.914
340.1000	-792543	438.532
340.0000	-312793	438.055
339.9000	324300	437.581
339.8000	249116	437.221
339.7000	-14828	436.762
339.6000	-722106	436.293
339.5000	-1.29966E+006	435.966
339.4000	-2.26326E+006	435.503
339.3000	-2.38418E+006	435.019
339.2000	-3.49635E+006	434.488
339.1000	-4.03718E+006	434.01
339.0000	-4.13758E+006	433.52
338.9000	-3.62882E+006	432.954
338.8000	-2.71157E+006	432.433
338.7000	-1.96343E+006	431.904
338.6000	-1.09543E+006	431.34
338.5000	-420029	430.851
338.4000	473246	430.49
338.3000	757672	430.031
338.2000	387553	429.567
338.1000	651989	429.253
338.0000	680278	428.841
337.9000	413847	428.419
337.8000	-177973	428.12
337.7000	-704089	427.724
337.6000	-796265	427.308
337.5000	-442880	426.995
337.4000	-705713	426.589
337.3000	-966406	426.163
337.2000	-1.30069E+006	425.677
337.1000	-1.42945E+006	425.243
337.0000	-981122	424.811
336.9000	-925845	424.335
336.8000	-1.69014E+006	423.913
336.7000	-2.38023E+006	423.499
336.6000	-2.34987E+006	423.045
336.5000	-2.13308E+006	422.635
336.4000	-2.172E+006	422.352
336.3000	-2.53667E+006	421.955
336.2000	-3.16726E+006	421.545
336.1000	-3.5646E+006	421.243
336.0000	-3.26474E+006	420.877
335.9000	-2.78553E+006	420.489
335.8000	-2.35799E+006	420.049
335.7000	-1.76394E+006	419.653
335.6000	-1.52941E+006	419.243
335.5000	-1.54054E+006	418.815
335.4000	-1.09536E+006	418.45
335.3000	-728807	418.087
335.2000	-318799	417.696
335.1000	-48553.4	417.349
335.0000	-110456	417.12
334.9000	-881836	416.797
334.8000	-1.02961E+006	416.465
334.7000	-1.28263E+006	416.098
334.6000	-1.29727E+006	415.781
334.5000	-1.4686E+006	415.447
334.4000	-1.84756E+006	415.05
334.3000	-2.39829E+006	414.677
334.2000	-2.74324E+006	414.288
334.1000	-2.80555E+006	413.856
334.0000	-3.20298E+006	413.471
333.9000	-3.10134E+006	413.189
333.8000	-3.19468E+006	412.834
333.7000	-3.21535E+006	412.474
333.6000	-2.76291E+006	412.091
333.5000	-2.29825E+006	411.767
333.4000	-1.93844E+006	411.441
333.3000	-1.65974E+006	411.103
333.2000	-1.17903E+006	410.818
333.1000	-1.40554E+006	410.521
333.0000	-1.70086E+006	410.197
332.9000	-1.6104E+006	409.903
332.8000	-1.60598E+006	409.56
332.7000	-1.62052E+006	409.249
332.6000	-1.51438E+006	408.926
332.5000	-1.62258E+006	408.574
332.4000	-1.87586E+006	408.26
332.3000	-1.68559E+006	407.947
332.2000	-690384	407.595
332.1000	-233390	407.266
332.0000	-517502	406.922
331.9000	-1.20597E+006	406.628
331.8000	-1.45228E+006	406.342
331.7000	-1.37717E+006	406.018
331.6000	-1.29429E+006	405.719
331.5000	-1.21791E+006	405.3
331.4000	-1.75339E+006	404.96
331.3000	-2.52313E+006	404.659
331.2000	-2.79331E+006	404.324
331.1000	-2.75267E+006	404.022
331.0000	-3.10981E+006	403.71
330.9000	-3.39324E+006	403.389
330.8000	-3.22822E+006	403.112
330.7000	-2.92771E+006	402.801
330.6000	-2.67884E+006	402.529
330.5000	-2.25305E+006	402.262
330.4000	-1.86303E+006	401.975
330.3000	-1.3935E+006	401.733
330.2000	-805749	401.375
330.1000	-455284	401.08
330.0000	-1.01909E+006	400.809
329.9000	-1.67564E+006	400.515
329.8000	-2.42269E+006	400.253
329.7000	-2.53155E+006	399.903
329.6000	-2.53133E+006	399.626
329.5000	-2.49051E+006	399.38
329.4000	-2.69545E+006	399.075
329.3000	-2.90841E+006	398.805
329.2000	-2.63865E+006	398.441
329.1000	-1.96293E+006	398.162
329.0000	-1.66967E+006	397.918
328.9000	-1.55576E+006	397.631
328.8000	-1.47266E+006	397.371
328.7000	-1.32648E+006	397.024
328.6000	-1.19692E+006	396.777
328.5000	-1.28753E+006	396.575
328.4000	-1.18787E+006	396.326
328.3000	-1.57733E+006	396.095
328.2000	-1.58338E+006	395.781
328.1000	-1.77664E+006	395.534
328.0000	-1.79167E+006	395.323
327.9000	-2.29541E+006	395.053
327.8000	-2.9429E+006	394.804
327.7000	-2.86368E+006	394.513
327.6000	-3.03975E+006	394.304
327.5000	-3.31417E+006	394.137
327.4000	-3.58562E+006	393.864
327.3000	-3.59989E+006	393.622
327.2000	-3.73606E+006	393.319
327.1000	-3.78766E+006	393.1
327.0000	-3.20266E+006	392.924
326.9000	-3.08432E+006	392.654
326.8000	-2.9529E+006	392.383
326.7000	-3.12711E+006	392.057
326.6000	-2.7861E+006	391.849
326.5000	-2.14418E+006	391.697
326.4000	-1.90307E+006	391.435
326.3000	-1.65992E+006	391.183
326.2000	-1.79799E+006	390.897
326.1000	-2.00632E+006	390.701
326.0000	-2.04077E+006	390.39
325.9000	-1.9943E+006	390.113
325.8000	-1.41763E+006	389.86
325.7000	-1.68285E+006	389.612
325.6000	-1.95831E+006	389.467
325.5000	-2.3143E+006	389.163
325.4000	-2.66912E+006	388.871
325.3000	-2.9108E+006	388.582
325.2000	-2.97909E+006	388.408
325.1000	-2.6887E+006	388.292
325.0000	-2.92408E+006	388.002
324.9000	-3.09058E+006	387.697
324.8000	-3.00761E+006	387.374
324.7000	-2.5144E+006	387.207
324.6000	-2.24978E+006	387.118
324.5000	-2.12348E+006	386.843
324.4000	-1.96054E+006	386.568
324.3000	-1.86148E+006	386.309
324.2000	-1.71355E+006	386.168
324.1000	-1.70346E+006	385.901
324.0000	-1.94973E+006	385.63
323.9000	-2.2988E+006	385.353
323.8000	-2.38444E+006	385.105
323.7000	-2.02657E+006	384.987
323.6000	-1.89108E+006	384.715
323.5000	-1.92135E+006	384.418
323.4000	-1.91532E+006	384.121
323.3000	-1.64485E+006	383.964
323.2000	-1.6008E+006	383.869
323.1000	-1.47399E+006	383.607
323.0000	-1.18731E+006	383.322
322.9000	-956426	383.033
322.8000	-642906	382.892
322.7000	-400891	382.641
322.6000	-355131	382.364
322.5000	-582119	382.084
322.4000	-701034	381.802
322.3000	-430291	381.634
322.2000	-498749	381.333
322.1000	-876291	381.005
322.0000	-1.49876E+006	380.676
321.9000	-2.21196E+006	380.478
321.8000	-2.30062E+006	380.173
321.7000	-2.24621E+006	379.859
321.6000	-2.45352E+006	379.539
321.5000	-2.88263E+006	379.238
321.4000	-3.06462E+006	379.084
321.3000	-3.38196E+006	378.862
321.2000	-3.48295E+006	378.642
321.1000	-3.51439E+006	378.429
321.0000	-3.76153E+006	378.362
320.9000	-4.08665E+006	378.213
320.8000	-4.01832E+006	378.066
320.7000	-4.24153E+006	377.922
320.6000	-4.34597E+006	377.771
320.5000	-4.11234E+006	377.722
320.4000	-3.79035E+006	377.564
320.3000	-3.03093E+006	377.392
320.2000	-2.23414E+006	377.226
320.1000	-1.67549E+006	377.164
320.0000	-1.49616E+006	377.002
319.9000	-1.26635E+006	376.826
319.8000	-1.04527E+006	376.644
319.7000	-1.23153E+006	376.455
319.6000	-1.71945E+006	376.233
319.5000	-2.04693E+006	376.065
319.4000	-2.09714E+006	375.884
319.3000	-2.40951E+006	375.67
319.2000	-2.33587E+006	375.56
319.1000	-2.20826E+006	375.354
319.0000	-2.15954E+006	375.133
318.9000	-2.09099E+006	374.905
318.8000	-1.83827E+006	374.779
318.7000	-1.6566E+006	374.553
318.6000	-1.89745E+006	374.316
318.5000	-1.99947E+006	374.108
318.4000	-2.291E+006	373.898
318.3000	-2.48433E+006	373.672
318.2000	-2.61388E+006	373.501
318.1000	-2.49326E+006	373.336
318.0000	-2.28083E+006	373.156
317.9000	-2.13193E+006	373.084
317.8000	-1.60155E+006	372.957
317.7000	-1.59192E+006	372.806
317.6000	-1.50538E+006	372.624
317.5000	-1.09051E+006	372.526
317.4000	-766947	372.356
317.3000	-499923	372.173
317.2000	-698318	371.972
317.1000	-890652	371.771
317.0000	-1.44857E+006	371.509
316.9000	-1.72235E+006	371.291
316.8000	-1.64406E+006	371.101
316.7000	-2.13797E+006	370.908
316.6000	-2.45027E+006	370.71
316.5000	-2.73744E+006	370.548
316.4000	-2.87307E+006	370.379
316.3000	-2.90894E+006	370.204
316.2000	-2.74253E+006	370.034
316.1000	-2.677E+006	369.908
316.0000	-2.9558E+006	369.777
315.9000	-2.90249E+006	369.606
315.8000	-3.01332E+006	369.493
315.7000	-3.35941E+006	369.313
315.6000	-3.28188E+006	369.154
315.5000	-3.17022E+006	368.98
315.4000	-3.10852E+006	368.873
315.3000	-3.23259E+006	368.676
315.2000	-2.88621E+006	368.472
315.1000	-2.34248E+006	368.288
315.0000	-2.34875E+006	368.104
314.9000	-2.33873E+006	367.913
314.8000	-2.22526E+006	367.752
314.7000	-2.57511E+006	367.578
314.6000	-2.77432E+006	367.406
314.5000	-2.94138E+006	367.245
314.4000	-2.72313E+006	367.132
314.3000	-2.94683E+006	366.983
314.2000	-2.58625E+006	366.844
314.1000	-2.12631E+006	366.664
314.0000	-1.80737E+006	366.506
313.9000	-1.77247E+006	366.346
313.8000	-1.51563E+006	366.195
313.7000	-1.17563E+006	365.976
313.6000	-1.22097E+006	365.774
313.5000	-1.38025E+006	365.586
313.4000	-1.65757E+006	365.4
313.3000	-1.67317E+006	365.224
313.2000	-1.66185E+006	365.079
313.1000	-1.54262E+006	364.921
313.0000	-1.5542E+006	364.76
312.9000	-1.7341E+006	364.612
312.8000	-1.53383E+006	364.509
312.7000	-1.55041E+006	364.374
312.6000	-1.86763E+006	364.239
312.5000	-2.04915E+006	364.073
312.4000	-2.09267E+006	363.922
312.3000	-2.11313E+006	363.751
312.2000	-1.97734E+006	363.587
312.1000	-1.8793E+006	363.364
312.0000	-1.8889E+006	363.153
311.9000	-1.90757E+006	362.947
311.8000	-1.64826E+006	362.702
311.7000	-1.568E+006	362.505
311.6000	-1.73196E+006	362.298
311.5000	-1.9936E+006	362.128
311.4000	-2.16968E+006	361.914
311.3000	-2.20743E+006	361.777
311.2000	-2.49658E+006	361.64
311.1000	-2.6332E+006	361.531
311.0000	-3.15103E+006	361.408
310.9000	-3.5287E+006	361.309
310.8000	-3.69197E+006	361.2
310.7000	-3.77502E+006	361.105
310.6000	-3.61823E+006	360.983
310.5000	-3.67686E+006	360.877
310.4000	-3.52595E+006	360.777
310.3000	-3.61465E+006	360.684
310.2000	-3.47E+006	360.598
310.1000	-3.3153E+006	360.528
310.0000	-3.0314E+006	360.45
309.9000	-2.82823E+006	360.382
309.8000	-2.76188E+006	360.318
309.7000	-2.87662E+006	360.228
309.6000	-2.98638E+006	360.155
309.5000	-2.94747E+006	360.04
309.4000	-2.7058E+006	359.948
309.3000	-2.30022E+006	359.813
309.2000	-2.1788E+006	359.704
309.1000	-2.14727E+006	359.529
309.0000	-2.25132E+006	359.378
308.9000	-2.01304E+006	359.244
308.8000	-1.8521E+006	359.121
308.7000	-2.01846E+006	359.003
308.6000	-2.18817E+006	358.901
308.5000	-2.62977E+006	358.789
308.4000	-3.08498E+006	358.664
308.3000	-3.48548E+006	358.59
308.2000	-3.42528E+006	358.488
308.1000	-3.18638E+006	358.412
308.0000	-3.16049E+006	358.308
307.9000	-3.00739E+006	358.22
307.8000	-2.88717E+006	358.081
307.7000	-2.74248E+006	357.97
307.6000	-2.4409E+006	357.844
307.5000	-2.01492E+006	357.675
307.4000	-1.86552E+006	357.546
307.3000	-1.9967E+006	357.415
307.2000	-2.25892E+006	357.309
307.1000	-2.2511E+006	357.172
307.0000	-2.31486E+006	357.076
306.9000	-2.32239E+006	356.979
306.8000	-2.36138E+006	356.918
306.7000	-2.43142E+006	356.854
306.6000	-2.34762E+006	356.766
306.5000	-2.46444E+006	356.685
306.4000	-2.28356E+006	356.56
306.3000	-2.48102E+006	356.467
306.2000	-2.44286E+006	356.344
306.1000	-2.22999E+006	356.237
306.0000	-2.11595E+006	356.089
305.9000	-2.3982E+006	355.979
305.8000	-2.58051E+006	355.896
305.7000	-2.57538E+006	355.781
305.6000	-2.2382E+006	355.706
305.5000	-2.07558E+006	355.623
305.4000	-1.70136E+006	355.574
305.3000	-1.55042E+006	355.483
305.2000	-1.53645E+006	355.419
305.1000	-1.43779E+006	355.336
305.0000	-1.48044E+006	355.21
304.9000	-1.64505E+006	355.122
304.8000	-1.88923E+006	355.007
304.7000	-2.23937E+006	354.906
304.6000	-2.48781E+006	354.772
304.5000	-2.66822E+006	354.66
304.4000	-2.86084E+006	354.57
304.3000	-3.14502E+006	354.452
304.2000	-3.27045E+006	354.388
304.1000	-3.26497E+006	354.322
304.0000	-3.31235E+006	354.283
303.9000	-3.1455E+006	354.202
303.8000	-3.15734E+006	354.119
303.7000	-3.07907E+006	354.066
303.6000	-3.09718E+006	353.958
303.5000	-2.60262E+006	353.888
303.4000	-2.35569E+006	353.798
303.3000	-2.4658E+006	353.682
303.2000	-2.58047E+006	353.571
303.1000	-2.78433E+006	353.479
303.0000	-2.89187E+006	353.428
302.9000	-3.03912E+006	353.337
302.8000	-3.1522E+006	353.262
302.7000	-3.30003E+006	353.201
302.6000	-3.15637E+006	353.117
302.5000	-2.69184E+006	353.071
302.4000	-2.50114E+006	353.01
302.3000	-2.16315E+006	352.913
302.2000	-2.03868E+006	352.818
302.1000	-1.89582E+006	352.727
302.0000	-2.02344E+006	352.666
301.9000	-2.22319E+006	352.576
301.8000	-2.63619E+006	352.492
301.7000	-3.07763E+006	352.426
301.6000	-3.37292E+006	352.335
301.5000	-3.41896E+006	352.29
301.4000	-3.38779E+006	352.239
301.3000	-3.46738E+006	352.155
301.2000	-3.37153E+006	352.081
301.1000	-3.04471E+006	352.019
301.0000	-2.78072E+006	351.99
300.9000	-2.53139E+006	351.916
300.8000	-2.24677E+006	351.842
300.7000	-2.04841E+006	351.783
300.6000	-2.05604E+006	351.702
300.5000	-2.11127E+006	351.638
300.4000	-2.22752E+006	351.588
300.3000	-2.46167E+006	351.51
300.2000	-2.92805E+006	351.431
300.1000	-3.16566E+006	351.371
300.0000	-3.36566E+006	351.304
299.9000	-3.70212E+006	351.243
299.8000	-4.05374E+006	351.184
299.7000	-4.31799E+006	351.114
299.6000	-3.96487E+006	351.057
299.5000	-3.69154E+006	350.998
299.4000	-3.53763E+006	350.95
299.3000	-3.27275E+006	350.885
299.2000	-3.16888E+006	350.831
299.1000	-3.1434E+006	350.792
299.0000	-2.81932E+006	350.732
298.9000	-2.25759E+006	350.69
298.8000	-2.05706E+006	350.655
298.7000	-2.48192E+006	350.59
298.6000	-2.67165E+006	350.536
298.5000	-2.85301E+006	350.478
298.4000	-2.95524E+006	350.412
298.3000	-3.12546E+006	350.356
298.2000	-3.34979E+006	350.292
298.1000	-3.81845E+006	350.225
298.0000	-4.25258E+006	350.163
297.9000	-4.26606E+006	350.116
297.8000	-4.18837E+006	350.051
297.7000	-4.02002E+006	350.003
297.6000	-4.00858E+006	349.964
297.5000	-3.90762E+006	349.894
297.4000	-3.81716E+006	349.845
297.3000	-3.68371E+006	349.801
297.2000	-3.71761E+006	349.731
297.1000	-3.91979E+006	349.678
297.0000	-3.98428E+006	349.624
296.9000	-4.11137E+006	349.552
296.8000	-4.13409E+006	349.497
296.7000	-4.10465E+006	349.45
296.6000	-4.11286E+006	349.412
296.5000	-4.19455E+006	349.365
296.4000	-4.4452E+006	349.326
296.3000	-4.50103E+006	349.296
296.2000	-4.51655E+006	349.254
296.1000	-4.43932E+006	349.217
296.0000	-4.22017E+006	349.189
295.9000	-4.09495E+006	349.143
295.8000	-4.08794E+006	349.079
295.7000	-3.84683E+006	349.038
295.6000	-3.42429E+006	348.997
295.5000	-2.95086E+006	348.939
295.4000	-2.54279E+006	348.872
295.3000	-2.57675E+006	348.832
295.2000	-2.80411E+006	348.772
295.1000	-3.01361E+006	348.701
295.0000	-2.98724E+006	348.662
294.9000	-3.17391E+006	348.61
294.8000	-3.56253E+006	348.534
294.7000	-3.84323E+006	348.485
294.6000	-4.17633E+006	348.441
294.5000	-3.99239E+006	348.382
294.4000	-3.53909E+006	348.343
294.3000	-3.2247E+006	348.317
294.2000	-3.21318E+006	348.265
294.1000	-3.09806E+006	348.228
294.0000	-2.72064E+006	348.208
293.9000	-2.28391E+006	348.168
293.8000	-2.21929E+006	348.14
293.7000	-2.51706E+006	348.116
293.6000	-2.84906E+006	348.061
293.5000	-3.10444E+006	347.997
293.4000	-3.26244E+006	347.965
293.3000	-3.24581E+006	347.919
293.2000	-3.33391E+006	347.862
293.1000	-3.61068E+006	347.834
293.0000	-3.7978E+006	347.783
292.9000	-3.58207E+006	347.734
292.8000	-3.64928E+006	347.716
292.7000	-3.70082E+006	347.692
292.6000	-3.7061E+006	347.652
292.5000	-3.89992E+006	347.596
292.4000	-4.13917E+006	347.561
292.3000	-4.49676E+006	347.508
292.2000	-4.42767E+006	347.459
292.1000	-4.35602E+006	347.433
292.0000	-4.39614E+006	347.385
291.9000	-4.12046E+006	347.331
291.8000	-3.95327E+006	347.286
291.7000	-3.77471E+006	347.268
291.6000	-3.77899E+006	347.225
291.5000	-3.61227E+006	347.177
291.4000	-3.66121E+006	347.151
291.3000	-3.80095E+006	347.094
291.2000	-3.88893E+006	347.021
291.1000	-4.24105E+006	346.951
291.0000	-4.65401E+006	346.896
290.9000	-4.85189E+006	346.819
290.8000	-4.88465E+006	346.723
290.7000	-4.48086E+006	346.623
290.6000	-4.41424E+006	346.509
290.5000	-4.37935E+006	346.372
290.4000	-4.43145E+006	346.23
290.3000	-4.19075E+006	346.106
290.2000	-4.03889E+006	345.956
290.1000	-4.11009E+006	345.791
290.0000	-4.06629E+006	345.646
289.9000	-4.23171E+006	345.546
289.8000	-4.20901E+006	345.46
289.7000	-3.97434E+006	345.403
289.6000	-3.82488E+006	345.382
289.5000	-3.8724E+006	345.401
289.4000	-3.9083E+006	345.445
289.3000	-3.87126E+006	345.525
289.2000	-3.72836E+006	345.625
289.1000	-3.93287E+006	345.74
289.0000	-4.25499E+006	345.845
288.9000	-4.72288E+006	345.947
288.8000	-4.59984E+006	346.046
288.7000	-4.60927E+006	346.133
288.6000	-4.30717E+006	346.199
288.5000	-3.99327E+006	346.253
288.4000	-3.94153E+006	346.284
288.3000	-3.87396E+006	346.306
288.2000	-3.63732E+006	346.307
288.1000	-3.47074E+006	346.298
288.0000	-3.6214E+006	346.274
287.9000	-3.84916E+006	346.235
287.8000	-4.05786E+006	346.211
287.7000	-4.39904E+006	346.181
287.6000	-4.48853E+006	346.158
287.5000	-4.40891E+006	346.124
287.4000	-4.27003E+006	346.106
287.3000	-4.14738E+006	346.093
287.2000	-3.94294E+006	346.078
287.1000	-3.72123E+006	346.068
287.0000	-3.68504E+006	346.03
