TITLE	ACE2_0.27uM
DATA TYPE	
ORIGIN	JASCO
OWNER	
DATE	24/02/26
TIME	14:37:53
SPECTROMETER/DATA SYSTEM	
LOCALE	1033
RESOLUTION	
DELTAX	-0.1
XUNITS	NANOMETERS
YUNITS	Mol. Ellip.
Y2UNITS	HT [V]
FIRSTX	  350.0000
LASTX	  190.0000
NPOINTS	    1601
FIRSTY	4118720.25000
MAXY	73295352.00000
MINY	-15005143.00000
XYDATA
350.0000	4.11872E+006	471.226
349.9000	4.26642E+006	470.624
349.8000	4.91017E+006	469.773
349.7000	5.49663E+006	468.91
349.6000	5.20045E+006	468.293
349.5000	3.33602E+006	467.754
349.4000	3.27122E+006	466.889
349.3000	2.74131E+006	466.27
349.2000	2.58229E+006	465.742
349.1000	2.10077E+006	464.927
349.0000	919378	464.293
348.9000	-570976	463.72
348.8000	-2.05782E+006	462.835
348.7000	-1.12181E+006	461.95
348.6000	-845522	461.313
348.5000	-999827	460.77
348.4000	-553645	459.905
348.3000	-157497	459.25
348.2000	1.00655E+006	458.675
348.1000	1.83992E+006	457.81
348.0000	2.95579E+006	457.175
347.9000	3.30184E+006	456.614
347.8000	2.74464E+006	455.794
347.7000	2.80599E+006	454.964
347.6000	3.03181E+006	454.38
347.5000	3.58001E+006	453.894
347.4000	3.74388E+006	453.095
347.3000	3.99477E+006	452.493
347.2000	3.76098E+006	451.971
347.1000	3.86126E+006	451.239
347.0000	4.37291E+006	450.699
346.9000	3.91842E+006	450.227
346.8000	3.55733E+006	449.461
346.7000	2.41213E+006	448.675
346.6000	606452	448.1
346.5000	-252557	447.375
346.4000	-866579	446.646
346.3000	-2.23785E+006	446.062
346.2000	-3.47509E+006	445.276
346.1000	-3.65147E+006	444.484
346.0000	-3.35155E+006	443.914
345.9000	-3.22031E+006	443.436
345.8000	-2.33661E+006	442.676
345.7000	-2.26986E+006	442.107
345.6000	-2.50969E+006	441.607
345.5000	-2.03583E+006	440.888
345.4000	-694961	440.367
345.3000	-313826	439.921
345.2000	-847967	439.211
345.1000	-1.17165E+006	438.484
345.0000	-1.7493E+006	437.953
344.9000	-1.30248E+006	437.283
344.8000	-386104	436.602
344.7000	80242.4	436.072
344.6000	123683	435.4
344.5000	250764	434.716
344.4000	545982	434.21
344.3000	1.07132E+006	433.548
344.2000	1.56146E+006	432.876
344.1000	2.12916E+006	432.369
344.0000	2.02601E+006	431.721
343.9000	2.06728E+006	431.066
343.8000	1.96769E+006	430.577
343.7000	2.27702E+006	430.152
343.6000	2.38573E+006	429.51
343.5000	2.61464E+006	429.051
343.4000	2.85168E+006	428.663
343.3000	2.89281E+006	428.029
343.2000	2.60239E+006	427.56
343.1000	2.45112E+006	427.151
343.0000	2.4366E+006	426.554
342.9000	2.66251E+006	425.945
342.8000	2.57185E+006	425.486
342.7000	1.53774E+006	424.867
342.6000	193741	424.235
342.5000	-534890	423.78
342.4000	-269576	423.211
342.3000	295930	422.636
342.2000	242159	422.195
342.1000	-651535	421.624
342.0000	-1.13944E+006	421.053
341.9000	-625599	420.649
341.8000	495327	420.111
341.7000	1.01674E+006	419.56
341.6000	963195	419.147
341.5000	181165	418.593
341.4000	275800	418.03
341.3000	217703	417.598
341.2000	-78599.7	417.042
341.1000	-589223	416.47
341.0000	-1.43141E+006	416.048
340.9000	-1.45166E+006	415.496
340.8000	-1.40677E+006	414.935
340.7000	-1.32018E+006	414.516
340.6000	-1.69242E+006	414.006
340.5000	-1.8348E+006	413.493
340.4000	-1.57121E+006	413.11
340.3000	-586838	412.599
340.2000	398756	412.081
340.1000	1.06441E+006	411.707
340.0000	351340	411.227
339.9000	221836	410.74
339.8000	120469	410.367
339.7000	71520.4	409.872
339.6000	-186323	409.363
339.5000	-299570	408.99
339.4000	-98406	408.514
339.3000	-603231	408.016
339.2000	-252260	407.475
339.1000	671066	406.992
339.0000	642226	406.491
338.9000	1.17944E+006	405.962
338.8000	1.50215E+006	405.492
338.7000	1.10776E+006	405.017
338.6000	684969	404.489
338.5000	1.10537E+006	404.026
338.4000	1.40943E+006	403.684
338.3000	1.0697E+006	403.264
338.2000	1.2152E+006	402.845
338.1000	1.84139E+006	402.542
338.0000	2.0921E+006	402.127
337.9000	2.16391E+006	401.703
337.8000	2.17919E+006	401.404
337.7000	2.42908E+006	401.004
337.6000	2.64341E+006	400.595
337.5000	2.30259E+006	400.279
337.4000	2.16913E+006	399.863
337.3000	1.37902E+006	399.434
337.2000	952740	398.968
337.1000	612507	398.554
337.0000	92909.1	398.13
336.9000	-576654	397.679
336.8000	-1.27399E+006	397.282
336.7000	-995762	396.888
336.6000	-1.11017E+006	396.457
336.5000	-1.22542E+006	396.067
336.4000	-1.89474E+006	395.786
336.3000	-2.23569E+006	395.403
336.2000	-2.22299E+006	395.017
336.1000	-2.09888E+006	394.731
336.0000	-1.99482E+006	394.368
335.9000	-1.56651E+006	393.986
335.8000	-1.889E+006	393.548
335.7000	-1.60567E+006	393.157
335.6000	-350108	392.765
335.5000	15737.3	392.358
335.4000	470653	392.001
335.3000	1.40899E+006	391.646
335.2000	1.70752E+006	391.263
335.1000	1.47942E+006	390.923
335.0000	1.60643E+006	390.7
334.9000	1.8063E+006	390.387
334.8000	1.09824E+006	390.055
334.7000	757736	389.684
334.6000	573904	389.359
334.5000	39574.9	389.023
334.4000	-88425.6	388.646
334.3000	127496	388.298
334.2000	-228742	387.94
334.1000	-649889	387.54
334.0000	-542610	387.187
333.9000	-330517	386.931
333.8000	121844	386.607
333.7000	256585	386.272
333.6000	-307644	385.895
333.5000	-641649	385.564
333.4000	-711926	385.234
333.3000	-433802	384.902
333.2000	-376421	384.623
333.1000	-280521	384.34
333.0000	-5259.57	384.02
332.9000	348820	383.732
332.8000	872332	383.415
332.7000	1.33364E+006	383.142
332.6000	1.62574E+006	382.858
332.5000	1.71142E+006	382.526
332.4000	1.68872E+006	382.225
332.3000	2.16876E+006	381.915
332.2000	2.94977E+006	381.578
332.1000	2.76455E+006	381.271
332.0000	2.93487E+006	380.924
331.9000	2.82309E+006	380.62
331.8000	2.32038E+006	380.311
331.7000	2.14102E+006	379.992
331.6000	1.57265E+006	379.709
331.5000	1.28794E+006	379.309
331.4000	155734	378.986
331.3000	-599380	378.702
331.2000	-1.60143E+006	378.406
331.1000	-2.03424E+006	378.148
331.0000	-1.97527E+006	377.883
330.9000	-2.10678E+006	377.589
330.8000	-1.76751E+006	377.328
330.7000	-1.52121E+006	377.052
330.6000	-1.19304E+006	376.816
330.5000	-326851	376.579
330.4000	929765	376.29
330.3000	1.69872E+006	376.032
330.2000	1.57244E+006	375.696
330.1000	1.94721E+006	375.434
330.0000	2.75743E+006	375.209
329.9000	2.7818E+006	374.904
329.8000	2.15646E+006	374.622
329.7000	1.433E+006	374.265
329.6000	872494	374.002
329.5000	131097	373.777
329.4000	-47746.8	373.481
329.3000	-234386	373.204
329.2000	-472495	372.884
329.1000	-1.15298E+006	372.667
329.0000	-1.26346E+006	372.503
328.9000	-1.15404E+006	372.242
328.8000	-1.31484E+006	371.991
328.7000	-1.9034E+006	371.726
328.6000	-1.70906E+006	371.564
328.5000	-1.59302E+006	371.446
328.4000	-2.36336E+006	371.154
328.3000	-2.07507E+006	370.863
328.2000	-1.44848E+006	370.589
328.1000	-1.27836E+006	370.423
328.0000	-1.30386E+006	370.311
327.9000	-609455	370
327.8000	-123174	369.666
327.7000	54336.4	369.335
327.6000	642312	369.156
327.5000	1.15088E+006	369.052
327.4000	1.37443E+006	368.746
327.3000	1.91648E+006	368.413
327.2000	2.02308E+006	368.127
327.1000	2.03517E+006	368.001
327.0000	1.79511E+006	367.949
326.9000	1.94332E+006	367.695
326.8000	1.90968E+006	367.412
326.7000	1.77083E+006	367.148
326.6000	1.57336E+006	367.027
326.5000	577257	366.975
326.4000	285151	366.675
326.3000	25973.8	366.332
326.2000	-667321	366.013
326.1000	-812879	365.842
326.0000	-741645	365.53
325.9000	-580893	365.197
325.8000	-788141	364.847
325.7000	-136982	364.53
325.6000	282781	364.37
325.5000	513453	364.106
325.4000	881231	363.817
325.3000	915561	363.508
325.2000	673207	363.387
325.1000	371749	363.349
325.0000	210854	361.921
324.9000	-644.26	351.521
324.8000	-427657	337.814
324.7000	-522966	323.49
324.6000	-51333.6	309.059
324.5000	170186	294.464
324.4000	-57452.2	279.822
324.3000	-329055	265.151
324.2000	-890413	250.626
324.1000	-1.29844E+006	243.336
324.0000	-1.47497E+006	241.544
323.9000	-1.65065E+006	240.963
323.8000	-1.81173E+006	240.664
323.7000	-1.9715E+006	240.512
323.6000	-1.94971E+006	240.343
323.5000	-1.61863E+006	240.186
323.4000	-1.18059E+006	240.019
323.3000	-900898	239.941
323.2000	-908497	239.904
323.1000	-627325	239.786
323.0000	-404452	239.663
322.9000	-429582	239.504
322.8000	-280001	239.4
322.7000	-314953	239.224
322.6000	-225664	239.048
322.5000	315412	238.843
322.4000	643898	238.633
322.3000	645394	238.475
322.2000	706678	238.243
322.1000	478862	238.028
322.0000	325193	237.822
321.9000	488662	237.685
321.8000	360620	237.506
321.7000	163947	237.348
321.6000	78177.8	237.202
321.5000	334043	237.054
321.4000	353834	236.989
321.3000	507575	236.902
321.2000	314376	236.819
321.1000	-218822	236.708
321.0000	-481266	236.66
320.9000	-619224	236.577
320.8000	-558848	236.491
320.7000	-488176	236.385
320.6000	-584736	236.275
320.5000	-523086	236.208
320.4000	-307636	236.077
320.3000	326847	235.959
320.2000	935266	235.825
320.1000	1.58304E+006	235.739
320.0000	1.56038E+006	235.619
319.9000	1.29143E+006	235.515
319.8000	1.23129E+006	235.396
319.7000	1.13854E+006	235.273
319.6000	831868	235.156
319.5000	418321	235.071
319.4000	-253507	234.996
319.3000	-989048	234.872
319.2000	-1.41868E+006	234.78
319.1000	-1.22766E+006	234.65
319.0000	-1.23001E+006	234.532
318.9000	-1.2911E+006	234.38
318.8000	-1.1968E+006	234.267
318.7000	-1.25256E+006	234.099
318.6000	-780591	233.929
318.5000	-231342	233.777
318.4000	239815	233.642
318.3000	83377	233.516
318.2000	-187412	233.411
318.1000	-456980	233.334
318.0000	-594498	233.235
317.9000	-533967	233.185
317.8000	-466369	233.121
317.7000	-576436	233.067
317.6000	-675493	232.962
317.5000	-741924	232.876
317.4000	-497512	232.756
317.3000	102049	232.632
317.2000	503755	232.491
317.1000	1.01398E+006	232.357
317.0000	1.3564E+006	232.19
316.9000	1.31626E+006	232.027
316.8000	1.05168E+006	231.883
316.7000	997420	231.757
316.6000	823541	231.646
316.5000	252844	231.545
316.4000	-274214	231.427
316.3000	-797511	231.32
316.2000	-1.01428E+006	231.233
316.1000	-1.05166E+006	231.171
316.0000	-1.00339E+006	231.125
315.9000	-982406	231.031
315.8000	-825071	230.947
315.7000	-605744	230.835
315.6000	-18205.1	230.761
315.5000	321011	230.653
315.4000	481827	230.559
315.3000	745296	230.417
315.2000	945126	230.27
315.1000	976875	230.135
315.0000	1.26948E+006	230.017
314.9000	1.40503E+006	229.909
314.8000	888371	229.805
314.7000	449045	229.698
314.6000	-219252	229.604
314.5000	-690285	229.524
314.4000	-799930	229.461
314.3000	-717152	229.366
314.2000	-846531	229.278
314.1000	-1.13422E+006	229.167
314.0000	-1.00807E+006	229.062
313.9000	-673579	228.943
313.8000	-453649	228.832
313.7000	-211129	228.686
313.6000	-209912	228.547
313.5000	-235483	228.419
313.4000	-386322	228.305
313.3000	-500492	228.202
313.2000	-694904	228.106
313.1000	-826152	228.004
313.0000	-835632	227.915
312.9000	-900917	227.836
312.8000	-868794	227.775
312.7000	-601957	227.687
312.6000	-319176	227.609
312.5000	-216818	227.501
312.4000	-45173.6	227.393
312.3000	217530	227.273
312.2000	15187.2	227.158
312.1000	-38542.6	227.016
312.0000	27609	226.878
311.9000	-129263	226.739
311.8000	-302418	226.602
311.7000	-555386	226.492
311.6000	-725557	226.36
311.5000	-786856	226.256
311.4000	-453152	226.148
311.3000	-189770	226.076
311.2000	252143	225.985
311.1000	579423	225.922
311.0000	626198	225.854
310.9000	861191	225.788
310.8000	1.33852E+006	225.716
310.7000	1.50863E+006	225.659
310.6000	1.59296E+006	225.577
310.5000	1.95113E+006	225.505
310.4000	1.81247E+006	225.433
310.3000	1.46258E+006	225.372
310.2000	1.20275E+006	225.314
310.1000	1.1862E+006	225.267
310.0000	1.08633E+006	225.212
309.9000	1.38586E+006	225.168
309.8000	1.50555E+006	225.128
309.7000	1.33354E+006	225.061
309.6000	1.19343E+006	225.012
309.5000	1.13676E+006	224.947
309.4000	1.30355E+006	224.892
309.3000	1.48092E+006	224.793
309.2000	1.67711E+006	224.716
309.1000	1.28945E+006	224.616
309.0000	1.15181E+006	224.528
308.9000	1.15397E+006	224.449
308.8000	1.15262E+006	224.38
308.7000	1.4133E+006	224.315
308.6000	1.47501E+006	224.254
308.5000	1.12882E+006	224.188
308.4000	845646	224.125
308.3000	851139	224.083
308.2000	1.03299E+006	224.007
308.1000	1.05063E+006	223.946
308.0000	1.12333E+006	223.878
307.9000	1.09574E+006	223.818
307.8000	1.11205E+006	223.722
307.7000	1.16608E+006	223.652
307.6000	1.09323E+006	223.576
307.5000	1.25283E+006	223.465
307.4000	1.24497E+006	223.387
307.3000	1.09419E+006	223.317
307.2000	1.0316E+006	223.258
307.1000	764620	223.167
307.0000	489754	223.104
306.9000	362760	223.047
306.8000	463283	223.01
306.7000	379624	222.964
306.6000	77198.2	222.911
306.5000	46036.3	222.864
306.4000	282815	222.781
306.3000	336372	222.721
306.2000	580444	222.647
306.1000	530554	222.578
306.0000	318924	222.478
305.9000	19482.3	222.406
305.8000	24779.5	222.354
305.7000	239039	222.266
305.6000	-51465.4	222.204
305.5000	-398439	222.157
305.4000	-669401	222.127
305.3000	-618392	222.06
305.2000	-340655	222.014
305.1000	-65134.3	221.972
305.0000	140113	221.891
304.9000	102125	221.84
304.8000	60364.5	221.787
304.7000	527201	221.732
304.6000	837493	221.645
304.5000	1.07439E+006	221.589
304.4000	987760	221.549
304.3000	880033	221.464
304.2000	811997	221.413
304.1000	925169	221.381
304.0000	1.05804E+006	221.36
303.9000	932335	221.296
303.8000	824849	221.251
303.7000	467695	221.222
303.6000	222055	221.147
303.5000	344378	221.104
303.4000	625505	221.063
303.3000	818135	220.992
303.2000	564865	220.917
303.1000	421685	220.869
303.0000	198553	220.839
302.9000	386605	220.764
302.8000	529680	220.715
302.7000	286590	220.681
302.6000	90264.2	220.617
302.5000	-385426	220.574
302.4000	-499893	220.537
302.3000	-417661	220.47
302.2000	-423463	220.403
302.1000	-568859	220.348
302.0000	-698755	220.311
301.9000	-365578	220.251
301.8000	-159117	220.207
301.7000	-86590.8	220.18
301.6000	143873	220.121
301.5000	378516	220.089
301.4000	462703	220.059
301.3000	700902	220.009
301.2000	674951	219.964
301.1000	717988	219.927
301.0000	354023	219.904
300.9000	281760	219.849
300.8000	331681	219.799
300.7000	236926	219.762
300.6000	126878	219.709
300.5000	47769.4	219.67
300.4000	32405.1	219.643
300.3000	-109117	219.589
300.2000	81745.7	219.537
300.1000	194713	219.502
300.0000	63137.5	219.458
299.9000	-13043.4	219.421
299.8000	-309753	219.387
299.7000	-554779	219.34
299.6000	-776816	219.292
299.5000	-639324	219.256
299.4000	-647082	219.232
299.3000	-614179	219.188
299.2000	-686868	219.158
299.1000	-707507	219.137
299.0000	-706052	219.09
298.9000	-718146	219.061
298.8000	-735071	219.042
298.7000	-671232	219.003
298.6000	-662103	218.965
298.5000	-929626	218.933
298.4000	-1.19172E+006	223.279
298.3000	-1.39611E+006	229.243
298.2000	-1.23209E+006	230.563
298.1000	-1.04858E+006	230.842
298.0000	-766651	230.886
297.9000	-580354	230.881
297.8000	-706196	230.846
297.7000	-619936	230.815
297.6000	-321776	230.629
297.5000	27058.9	221.469
297.4000	-55715.3	219.236
297.3000	-205696	218.699
297.2000	-238625	218.535
297.1000	-287159	218.469
297.0000	-157772	218.433
296.9000	-119173	218.392
296.8000	-269956	218.357
296.7000	-239224	218.332
296.6000	-195264	218.316
296.5000	-99619.2	218.287
296.4000	-105184	218.266
296.3000	-221987	218.251
296.2000	-190950	218.224
296.1000	-266671	218.202
296.0000	-308661	218.184
295.9000	-143915	218.158
295.8000	-257749	218.119
295.7000	-257504	218.095
295.6000	-342117	218.071
295.5000	-579058	218.031
295.4000	-761504	217.989
295.3000	-889045	217.967
295.2000	-772814	217.933
295.1000	-849741	217.894
295.0000	-927433	217.874
294.9000	-1.038E+006	217.84
294.8000	-1.31197E+006	217.8
294.7000	-1.16098E+006	217.78
294.6000	-1.02905E+006	217.761
294.5000	-739573	217.733
294.4000	-775486	217.712
294.3000	-759240	217.694
294.2000	-547843	217.666
294.1000	-279763	217.649
294.0000	153515	217.637
293.9000	277277	217.61
293.8000	314501	217.593
293.7000	226391	217.579
293.6000	-85177.9	217.548
293.5000	-252964	217.513
293.4000	-541702	217.494
293.3000	-659873	217.468
293.2000	-543688	217.438
293.1000	-372544	217.426
293.0000	-282766	217.4
292.9000	-303002	217.369
292.8000	-263615	217.355
292.7000	1450.53	217.346
292.6000	57463.5	217.323
292.5000	461320	217.292
292.4000	280287	217.273
292.3000	50218.4	217.24
292.2000	-87755	217.21
292.1000	-387057	217.196
292.0000	-770802	217.169
291.9000	-1.10748E+006	217.136
291.8000	-1.19133E+006	217.106
291.7000	-1.24352E+006	217.096
291.6000	-1.31552E+006	217.073
291.5000	-1.39012E+006	217.046
291.4000	-1.36219E+006	217.034
291.3000	-930187	217.005
291.2000	-498864	216.968
291.1000	62176.7	216.931
291.0000	427254	216.905
290.9000	375589	216.861
290.8000	390783	216.804
290.7000	225570	216.741
290.6000	326742	216.673
290.5000	394208	216.591
290.4000	575128	216.508
290.3000	652308	216.438
290.2000	531940	216.351
290.1000	358906	216.261
290.0000	311773	216.182
289.9000	419436	216.129
289.8000	640089	216.086
289.7000	723244	216.058
289.6000	785794	216.054
289.5000	605476	216.071
289.4000	625814	216.101
289.3000	744015	216.151
289.2000	734049	216.215
289.1000	852254	216.288
289.0000	883947	216.355
288.9000	828172	216.418
288.8000	621274	216.473
288.7000	644219	216.523
288.6000	577106	216.557
288.5000	608321	216.585
288.4000	854123	216.601
288.3000	1.05916E+006	216.611
288.2000	933910	216.612
288.1000	618139	216.605
288.0000	608735	216.591
287.9000	800013	216.567
287.8000	1.11738E+006	216.554
287.7000	1.50772E+006	216.539
287.6000	1.42126E+006	216.523
287.5000	1.05312E+006	216.499
287.4000	911752	216.485
287.3000	1.23608E+006	216.473
287.2000	1.23727E+006	216.466
287.1000	1.14583E+006	216.457
287.0000	938216	216.436
286.9000	520506	216.423
286.8000	380543	216.413
286.7000	365913	216.406
286.6000	546506	216.387
286.5000	698280	216.38
286.4000	891464	216.377
286.3000	1.03488E+006	216.374
286.2000	801923	216.374
286.1000	600047	216.364
286.0000	767916	216.363
285.9000	723956	216.358
285.8000	816236	216.354
285.7000	538270	216.345
285.6000	158921	216.326
285.5000	-53567.8	216.323
285.4000	-58925.3	216.325
285.3000	236696	216.326
285.2000	119000	216.319
285.1000	64738.7	216.309
285.0000	161894	216.315
284.9000	324134	216.318
284.8000	637395	216.32
284.7000	667397	216.317
284.6000	563957	216.303
284.5000	235121	216.305
284.4000	305549	216.312
284.3000	393183	216.318
284.2000	533248	216.319
284.1000	573342	216.311
284.0000	670057	216.306
283.9000	744015	216.312
283.8000	935092	216.321
283.7000	1.24089E+006	216.325
283.6000	1.38267E+006	216.317
283.5000	1.42208E+006	216.314
283.4000	1.52683E+006	216.306
283.3000	1.53946E+006	216.313
283.2000	1.50193E+006	216.33
283.1000	1.59961E+006	216.333
283.0000	1.76832E+006	216.331
282.9000	1.96429E+006	216.327
282.8000	2.14672E+006	216.33
282.7000	2.17784E+006	216.346
282.6000	1.95711E+006	216.359
282.5000	1.82439E+006	216.365
282.4000	1.70821E+006	216.361
282.3000	1.36052E+006	216.36
282.2000	1.12267E+006	216.358
282.1000	870561	216.371
282.0000	337788	216.378
281.9000	180965	216.38
281.8000	176998	216.382
281.7000	96932.9	216.381
281.6000	109276	216.383
281.5000	242110	216.384
281.4000	375826	216.399
281.3000	376361	216.408
281.2000	639215	216.41
281.1000	797161	216.406
281.0000	586039	216.4
280.9000	842997	216.398
280.8000	990985	216.395
280.7000	983751	216.392
280.6000	807175	216.392
280.5000	857276	216.382
280.4000	1.0019E+006	216.375
280.3000	913689	216.37
280.2000	1.16773E+006	216.364
280.1000	1.11919E+006	216.358
280.0000	1.0622E+006	216.352
279.9000	1.00496E+006	216.345
279.8000	1.24126E+006	216.331
279.7000	1.54502E+006	216.328
279.6000	1.5297E+006	216.325
279.5000	1.40909E+006	216.324
279.4000	1.17181E+006	216.323
279.3000	1.09202E+006	216.321
279.2000	1.08506E+006	216.321
279.1000	1.07942E+006	216.324
279.0000	975138	216.329
278.9000	973062	216.327
278.8000	957894	216.338
