TITLE	ACE2_seo_0.6uM
DATA TYPE	
ORIGIN	JASCO
OWNER	
DATE	24/04/08
TIME	17:15:15
SPECTROMETER/DATA SYSTEM	
LOCALE	1033
RESOLUTION	
DELTAX	-0.1
XUNITS	NANOMETERS
YUNITS	CD [mdeg]
Y2UNITS	HT [V]
FIRSTX	  350.0000
LASTX	  190.0000
NPOINTS	    1601
FIRSTY	    -0.19146
MAXY	     5.87058
MINY	    -2.51605
XYDATA
350.0000	-0.19146	490.375
349.9000	-0.0227583	489.786
349.8000	-0.208096	488.88
349.7000	-0.657694	487.956
349.6000	-0.670022	487.297
349.5000	-0.495368	486.726
349.4000	-0.488771	485.831
349.3000	-0.729094	485.18
349.2000	-0.768541	484.632
349.1000	-0.726752	483.769
349.0000	-0.650958	483.132
348.9000	-0.316372	482.585
348.8000	-0.0720174	481.732
348.7000	-0.134656	480.854
348.6000	-0.134378	480.229
348.5000	-0.118097	479.687
348.4000	-0.192983	478.807
348.3000	-0.562404	478.14
348.2000	-0.938824	477.554
348.1000	-1.15485	476.67
348.0000	-1.44309	475.997
347.9000	-1.53399	475.418
347.8000	-1.68614	474.553
347.7000	-1.70485	473.677
347.6000	-1.65513	473.051
347.5000	-1.57161	472.532
347.4000	-1.33787	471.728
347.3000	-1.43074	471.122
347.2000	-1.2191	470.619
347.1000	-1.04884	469.861
347.0000	-0.671835	469.312
346.9000	-0.46107	468.839
346.8000	-0.430869	468.073
346.7000	-0.443623	467.294
346.6000	-0.358602	466.716
346.5000	-0.2	465.95
346.4000	-0.103172	465.171
346.3000	-0.0474478	464.562
346.2000	-0.0688355	463.762
346.1000	-0.132529	462.946
346.0000	-0.0943064	462.346
345.9000	-0.110592	461.825
345.8000	-0.312043	461.014
345.7000	-0.480894	460.419
345.6000	-0.697467	459.912
345.5000	-1.04264	459.182
345.4000	-1.35244	458.648
345.3000	-1.39525	458.204
345.2000	-1.45626	457.492
345.1000	-1.50594	456.772
345.0000	-1.37757	456.251
344.9000	-1.20762	455.593
344.8000	-1.11572	454.916
344.7000	-0.868964	454.397
344.6000	-0.507549	453.714
344.5000	-0.331701	453.011
344.4000	-0.281689	452.487
344.3000	-0.271646	451.809
344.2000	-0.305028	451.124
344.1000	-0.311597	450.603
344.0000	-0.368997	449.917
343.9000	-0.283157	449.232
343.8000	-0.298627	448.733
343.7000	-0.356787	448.304
343.6000	-0.191975	447.657
343.5000	-0.0391257	447.186
343.4000	-0.00628668	446.779
343.3000	-0.0473318	446.112
343.2000	-0.0011159	445.627
343.1000	0.174435	445.217
343.0000	0.209656	444.624
342.9000	0.208005	444.013
342.8000	0.186534	443.558
342.7000	0.110042	442.929
342.6000	0.0865084	442.288
342.5000	0.152235	441.828
342.4000	0.165665	441.256
342.3000	0.0342512	440.668
342.2000	-0.0174078	440.202
342.1000	-0.178499	439.594
342.0000	-0.256963	438.987
341.9000	-0.511032	438.556
341.8000	-0.645082	437.996
341.7000	-0.891134	437.423
341.6000	-1.0364	436.999
341.5000	-1.09082	436.46
341.4000	-1.25233	435.906
341.3000	-1.24981	435.503
341.2000	-1.26216	434.937
341.1000	-1.27498	434.355
341.0000	-1.26657	433.924
340.9000	-1.09931	433.367
340.8000	-1.03501	432.792
340.7000	-0.806468	432.349
340.6000	-0.726195	431.792
340.5000	-0.664706	431.23
340.4000	-0.742675	430.817
340.3000	-0.791115	430.275
340.2000	-0.533299	429.738
340.1000	-0.457008	429.345
340.0000	-0.194719	428.86
339.9000	-0.0928852	428.365
339.8000	-0.171844	427.987
339.7000	-0.195676	427.506
339.6000	-0.0162442	427.028
339.5000	0.180243	426.691
339.4000	0.0413995	426.217
339.3000	-0.19399	425.72
339.2000	-0.424837	425.182
339.1000	-0.718721	424.694
339.0000	-0.769003	424.205
338.9000	-0.751398	423.65
338.8000	-0.862605	423.132
338.7000	-0.995329	422.604
338.6000	-0.981115	422.043
338.5000	-0.86068	421.554
338.4000	-0.761224	421.188
338.3000	-0.670794	420.734
338.2000	-0.594597	420.272
338.1000	-0.467496	419.946
338.0000	-0.455092	419.508
337.9000	-0.42982	419.068
337.8000	-0.482976	418.76
337.7000	-0.5589	418.356
337.6000	-0.526362	417.945
337.5000	-0.384262	417.632
337.4000	-0.354507	417.226
337.3000	-0.418028	416.8
337.2000	-0.369365	416.326
337.1000	-0.26761	415.912
337.0000	-0.231091	415.486
336.9000	-0.217108	415.019
336.8000	-0.207563	414.602
336.7000	-0.261657	414.181
336.6000	-0.404518	413.714
336.5000	-0.311081	413.294
336.4000	-0.201427	413.003
336.3000	-0.123546	412.598
336.2000	-0.162635	412.184
336.1000	-0.222659	411.883
336.0000	-0.200323	411.508
335.9000	-0.221756	411.112
335.8000	-0.107159	410.678
335.7000	-0.0590508	410.288
335.6000	-0.0572187	409.885
335.5000	-0.158915	409.466
335.4000	-0.163359	409.1
335.3000	-0.166985	408.728
335.2000	-0.112941	408.334
335.1000	-0.0766531	407.986
335.0000	-0.183989	407.753
334.9000	-0.353335	407.416
334.8000	-0.553429	407.058
334.7000	-0.63287	406.68
334.6000	-0.663565	406.347
334.5000	-0.585989	406.008
334.4000	-0.464577	405.598
334.3000	-0.503503	405.211
334.2000	-0.491375	404.815
334.1000	-0.435096	404.394
334.0000	-0.309631	404.033
333.9000	-0.234041	403.764
333.8000	-0.225923	403.416
333.7000	-0.268682	403.06
333.6000	-0.319257	402.675
333.5000	-0.310928	402.351
333.4000	-0.292692	402.021
333.3000	-0.297247	401.667
333.2000	-0.210166	401.362
333.1000	-0.2833	401.042
333.0000	-0.43637	400.695
332.9000	-0.516407	400.384
332.8000	-0.586678	400.034
332.7000	-0.653777	399.724
332.6000	-0.584773	399.41
332.5000	-0.465681	399.065
332.4000	-0.445012	398.758
332.3000	-0.465771	398.449
332.2000	-0.434464	398.098
332.1000	-0.42954	397.776
332.0000	-0.485352	397.433
331.9000	-0.551933	397.141
331.8000	-0.588606	396.851
331.7000	-0.799249	396.519
331.6000	-0.957035	396.216
331.5000	-1.03126	395.795
331.4000	-0.9827	395.463
331.3000	-0.778958	395.176
331.2000	-0.66435	394.857
331.1000	-0.522279	394.57
331.0000	-0.432837	394.278
330.9000	-0.272644	393.974
330.8000	-0.139223	393.707
330.7000	-0.125078	393.401
330.6000	-0.162414	393.13
330.5000	-0.34749	392.853
330.4000	-0.465489	392.553
330.3000	-0.477953	392.297
330.2000	-0.52779	391.923
330.1000	-0.574453	391.618
330.0000	-0.685995	391.342
329.9000	-0.638514	391.053
329.8000	-0.52323	390.804
329.7000	-0.351039	390.464
329.6000	-0.260036	390.198
329.5000	-0.205845	389.962
329.4000	-0.249039	389.666
329.3000	-0.224836	389.403
329.2000	-0.166589	389.042
329.1000	-0.141961	388.754
329.0000	-0.202803	388.495
328.9000	-0.298827	388.212
328.8000	-0.344641	387.955
328.7000	-0.31023	387.603
328.6000	-0.297247	387.345
328.5000	-0.286393	387.135
328.4000	-0.332123	386.872
328.3000	-0.373796	386.639
328.2000	-0.410883	386.335
328.1000	-0.347846	386.097
328.0000	-0.337433	385.884
327.9000	-0.389375	385.619
327.8000	-0.442371	385.382
327.7000	-0.434932	385.112
327.6000	-0.419862	384.933
327.5000	-0.412613	384.795
327.4000	-0.330081	384.528
327.3000	-0.239048	384.276
327.2000	-0.347196	383.965
327.1000	-0.354279	383.74
327.0000	-0.335934	383.555
326.9000	-0.34504	383.272
326.8000	-0.370744	382.985
326.7000	-0.321802	382.653
326.6000	-0.399463	382.445
326.5000	-0.464015	382.303
326.4000	-0.438229	382.039
326.3000	-0.320987	381.783
326.2000	-0.378475	381.501
326.1000	-0.38393	381.307
326.0000	-0.329422	381.001
325.9000	-0.293429	380.72
325.8000	-0.166748	380.454
325.7000	-0.0571826	380.202
325.6000	0.00865506	380.063
325.5000	0.0889682	379.772
325.4000	0.179835	379.492
325.3000	0.201875	379.209
325.2000	0.184483	379.04
325.1000	0.0924443	378.923
325.0000	0.0894231	378.642
324.9000	0.0421605	378.345
324.8000	0.0639562	378.027
324.7000	-0.00832867	377.862
324.6000	-0.0897729	377.769
324.5000	-0.147395	377.498
324.4000	-0.172726	377.22
324.3000	-0.174537	376.958
324.2000	-0.27493	376.805
324.1000	-0.418955	376.533
324.0000	-0.498499	376.264
323.9000	-0.511723	375.988
323.8000	-0.508355	375.739
323.7000	-0.375874	375.618
323.6000	-0.325642	375.353
323.5000	-0.230475	375.071
323.4000	-0.0373046	374.797
323.3000	-0.0335316	374.65
323.2000	-0.110475	374.56
323.1000	-0.208852	374.299
323.0000	-0.313791	374.014
322.9000	-0.405065	373.722
322.8000	-0.497153	373.576
322.7000	-0.607722	373.317
322.6000	-0.785642	373.033
322.5000	-0.84903	372.746
322.4000	-0.775744	372.459
322.3000	-0.789462	372.277
322.2000	-0.740597	371.976
322.1000	-0.68923	371.662
322.0000	-0.75932	371.344
321.9000	-0.680042	371.161
321.8000	-0.521373	370.87
321.7000	-0.470638	370.565
321.6000	-0.455919	370.255
321.5000	-0.360236	369.974
321.4000	-0.234774	369.832
321.3000	-0.276657	369.619
321.2000	-0.244623	369.405
321.1000	-0.28095	369.188
321.0000	-0.435917	369.11
320.9000	-0.56265	368.951
320.8000	-0.630467	368.793
320.7000	-0.66083	368.652
320.6000	-0.727052	368.5
320.5000	-0.718926	368.451
320.4000	-0.692381	368.284
320.3000	-0.695831	368.106
320.2000	-0.658688	367.932
320.1000	-0.546747	367.87
320.0000	-0.444222	367.716
319.9000	-0.472458	367.536
319.8000	-0.554725	367.342
319.7000	-0.584984	367.141
319.6000	-0.628129	366.915
319.5000	-0.651288	366.745
319.4000	-0.592528	366.561
319.3000	-0.631814	366.348
319.2000	-0.710324	366.233
319.1000	-0.728683	366.026
319.0000	-0.625348	365.811
318.9000	-0.545328	365.588
318.8000	-0.49498	365.465
318.7000	-0.434211	365.236
318.6000	-0.434269	364.998
318.5000	-0.491286	364.79
318.4000	-0.580271	364.581
318.3000	-0.636267	364.357
318.2000	-0.684291	364.187
318.1000	-0.78348	364.021
318.0000	-0.808597	363.833
317.9000	-0.757128	363.76
317.8000	-0.809553	363.626
317.7000	-0.759185	363.48
317.6000	-0.648178	363.303
317.5000	-0.51431	363.208
317.4000	-0.380085	363.038
317.3000	-0.321799	362.852
317.2000	-0.363611	362.663
317.1000	-0.468343	362.47
317.0000	-0.416056	362.218
316.9000	-0.40356	362.001
316.8000	-0.344223	361.806
316.7000	-0.416011	361.609
316.6000	-0.551302	361.405
316.5000	-0.599129	361.242
316.4000	-0.603692	361.065
316.3000	-0.585515	360.884
316.2000	-0.615368	360.716
316.1000	-0.61553	360.599
316.0000	-0.628476	360.477
315.9000	-0.670467	360.315
315.8000	-0.593625	360.218
315.7000	-0.631165	360.049
315.6000	-0.658263	359.898
315.5000	-0.627379	359.727
315.4000	-0.624248	359.619
315.3000	-0.615145	359.426
315.2000	-0.67351	359.222
315.1000	-0.706362	359.032
315.0000	-0.729685	358.85
314.9000	-0.674912	358.67
314.8000	-0.663231	358.519
314.7000	-0.673101	358.354
314.6000	-0.690663	358.19
314.5000	-0.764949	358.035
314.4000	-0.875267	357.918
314.3000	-0.970194	357.775
314.2000	-1.00426	357.635
314.1000	-1.05975	357.452
314.0000	-1.08737	357.293
313.9000	-1.10356	357.131
313.8000	-1.10886	356.977
313.7000	-1.08889	356.754
313.6000	-1.01144	356.551
313.5000	-0.84805	356.367
313.4000	-0.734582	356.189
313.3000	-0.676549	356.017
313.2000	-0.644396	355.871
313.1000	-0.617257	355.71
313.0000	-0.63509	355.551
312.9000	-0.671083	355.413
312.8000	-0.653894	355.319
312.7000	-0.666749	355.188
312.6000	-0.764558	355.053
312.5000	-0.745457	354.889
312.4000	-0.769071	354.735
312.3000	-0.793647	354.565
312.2000	-0.746703	354.403
312.1000	-0.71041	354.183
312.0000	-0.701211	353.974
311.9000	-0.748777	353.768
311.8000	-0.717438	353.528
311.7000	-0.679743	353.335
311.6000	-0.634822	353.129
311.5000	-0.462564	352.966
311.4000	-0.374285	352.764
311.3000	-0.320994	352.633
311.2000	-0.272429	352.499
311.1000	-0.209919	352.391
311.0000	-0.196153	352.274
310.9000	-0.296354	352.178
310.8000	-0.364617	352.073
310.7000	-0.454017	351.983
310.6000	-0.485581	351.86
310.5000	-0.518581	351.754
310.4000	-0.476652	351.654
310.3000	-0.464679	351.566
310.2000	-0.475524	351.478
310.1000	-0.463079	351.406
310.0000	-0.415404	351.326
309.9000	-0.399809	351.255
309.8000	-0.395592	351.189
309.7000	-0.413101	351.094
309.6000	-0.483423	351.017
309.5000	-0.608246	350.895
309.4000	-0.683085	350.8
309.3000	-0.701766	350.664
309.2000	-0.712302	350.554
309.1000	-0.764008	350.38
309.0000	-0.834776	350.232
308.9000	-0.93371	350.098
308.8000	-0.976891	349.98
308.7000	-0.995869	349.871
308.6000	-0.955081	349.777
308.5000	-0.994752	349.671
308.4000	-0.999058	349.554
308.3000	-0.971592	349.488
308.2000	-0.942985	349.383
308.1000	-0.886874	349.304
308.0000	-0.78583	349.202
307.9000	-0.707567	349.112
307.8000	-0.674812	348.97
307.7000	-0.629244	348.858
307.6000	-0.594573	348.73
307.5000	-0.698106	348.551
307.4000	-0.740711	348.421
307.3000	-0.794065	348.297
307.2000	-0.868393	348.195
307.1000	-0.902107	348.052
307.0000	-0.906051	347.952
306.9000	-0.854322	347.858
306.8000	-0.843665	347.799
306.7000	-0.827718	347.734
306.6000	-0.787003	347.65
306.5000	-0.6912	347.572
306.4000	-0.600728	347.447
306.3000	-0.613338	347.355
306.2000	-0.646097	347.233
306.1000	-0.734719	347.119
306.0000	-0.808206	346.962
305.9000	-0.821091	346.851
305.8000	-0.82409	346.768
305.7000	-0.883202	346.654
305.6000	-0.932859	346.57
305.5000	-0.958328	346.484
305.4000	-0.957166	346.432
305.3000	-0.888001	346.344
305.2000	-0.791566	346.288
305.1000	-0.663901	346.209
305.0000	-0.54513	346.082
304.9000	-0.462318	345.988
304.8000	-0.431864	345.873
304.7000	-0.399615	345.776
304.6000	-0.414877	345.637
304.5000	-0.49427	345.518
304.4000	-0.53298	345.415
304.3000	-0.641618	345.292
304.2000	-0.736066	345.219
304.1000	-0.794212	345.15
304.0000	-0.848102	345.108
303.9000	-0.911596	345.02
303.8000	-0.954454	344.935
303.7000	-0.906705	344.883
303.6000	-0.981787	344.779
303.5000	-0.97941	344.71
303.4000	-0.958461	344.62
303.3000	-0.956983	344.51
303.2000	-0.886894	344.405
303.1000	-0.794235	344.32
303.0000	-0.657301	344.276
302.9000	-0.606433	344.195
302.8000	-0.500666	344.128
302.7000	-0.386818	344.074
302.6000	-0.337424	343.996
302.5000	-0.295433	343.952
302.4000	-0.263797	343.89
302.3000	-0.284939	343.791
302.2000	-0.35212	343.698
302.1000	-0.416345	343.609
302.0000	-0.500008	343.545
301.9000	-0.576413	343.455
301.8000	-0.640746	343.376
301.7000	-0.744776	343.31
301.6000	-0.840846	343.221
301.5000	-0.86524	343.176
301.4000	-0.875279	343.131
301.3000	-0.880189	343.048
301.2000	-0.841622	342.977
301.1000	-0.775958	342.914
301.0000	-0.790007	342.879
300.9000	-0.777161	342.801
300.8000	-0.718967	342.726
300.7000	-0.733356	342.661
300.6000	-0.744311	342.576
300.5000	-0.75885	342.513
300.4000	-0.755359	342.465
300.3000	-0.760616	342.389
300.2000	-0.735761	342.32
300.1000	-0.710997	342.266
300.0000	-0.740789	342.206
299.9000	-0.82538	342.151
299.8000	-0.880148	342.095
299.7000	-0.922172	342.028
299.6000	-0.962214	341.966
299.5000	-1.00002	341.9
299.4000	-1.01322	341.846
299.3000	-1.00816	341.776
299.2000	-1.00144	341.719
299.1000	-0.953109	341.679
299.0000	-0.91017	341.613
298.9000	-0.828442	341.562
298.8000	-0.739743	341.524
298.7000	-0.749139	341.468
298.6000	-0.764971	341.423
298.5000	-0.804699	341.37
298.4000	-0.758721	341.308
298.3000	-0.750842	341.251
298.2000	-0.720669	341.192
298.1000	-0.722189	341.132
298.0000	-0.838734	341.073
297.9000	-0.8887	341.024
297.8000	-0.815613	340.954
297.7000	-0.759435	340.902
297.6000	-0.733564	340.86
297.5000	-0.722368	340.793
297.4000	-0.666431	340.748
297.3000	-0.586555	340.706
297.2000	-0.467507	340.641
297.1000	-0.403613	340.589
297.0000	-0.435383	340.538
296.9000	-0.460434	340.467
296.8000	-0.446425	340.414
296.7000	-0.44764	340.368
296.6000	-0.437334	340.333
296.5000	-0.496334	340.285
296.4000	-0.627094	340.248
296.3000	-0.647206	340.226
296.2000	-0.612133	340.189
296.1000	-0.648251	340.155
296.0000	-0.73388	340.126
295.9000	-0.790266	340.08
295.8000	-0.789522	340.017
295.7000	-0.824589	339.97
295.6000	-0.811816	339.926
295.5000	-0.880491	339.858
295.4000	-0.936037	339.781
295.3000	-0.924647	339.736
295.2000	-0.895221	339.676
295.1000	-0.912926	339.608
295.0000	-0.967878	339.567
294.9000	-0.9961	339.515
294.8000	-0.968395	339.448
294.7000	-0.900823	339.408
294.6000	-0.807397	339.374
294.5000	-0.77756	339.32
294.4000	-0.812821	339.278
294.3000	-0.802364	339.248
294.2000	-0.754101	339.199
294.1000	-0.728884	339.164
294.0000	-0.729508	339.141
293.9000	-0.79919	339.093
293.8000	-0.857618	339.059
293.7000	-0.867263	339.036
293.6000	-0.859123	338.985
293.5000	-0.892072	338.922
293.4000	-0.920141	338.891
293.3000	-0.915838	338.846
293.2000	-0.920915	338.792
293.1000	-0.87717	338.77
293.0000	-0.838667	338.726
292.9000	-0.859344	338.674
292.8000	-0.888518	338.653
292.7000	-0.799915	338.633
292.6000	-0.762015	338.596
292.5000	-0.816318	338.541
292.4000	-0.860953	338.509
292.3000	-0.853772	338.461
292.2000	-0.85064	338.415
292.1000	-0.799197	338.394
292.0000	-0.730684	338.352
291.9000	-0.755066	338.299
291.8000	-0.81637	338.258
291.7000	-0.779019	338.243
291.6000	-0.764316	338.203
291.5000	-0.816474	338.156
291.4000	-0.856961	338.131
291.3000	-0.813918	338.079
291.2000	-0.870139	338.009
291.1000	-0.918531	337.942
291.0000	-0.901356	337.892
290.9000	-0.928585	337.816
290.8000	-0.935878	337.725
290.7000	-0.894066	337.627
290.6000	-0.867126	337.52
290.5000	-0.86256	337.39
290.4000	-0.843801	337.257
290.3000	-0.83168	337.137
290.2000	-0.752785	336.993
290.1000	-0.719078	336.837
290.0000	-0.748815	336.697
289.9000	-0.796503	336.599
289.8000	-0.868572	336.51
289.7000	-0.899327	336.447
289.6000	-0.985161	336.419
289.5000	-1.04085	336.432
289.4000	-1.08596	336.471
289.3000	-1.13077	336.54
289.2000	-1.13952	336.632
289.1000	-1.03392	336.745
289.0000	-0.938721	336.85
288.9000	-0.918768	336.95
288.8000	-0.876111	337.043
288.7000	-0.79588	337.127
288.6000	-0.711335	337.188
288.5000	-0.723497	337.235
288.4000	-0.65776	337.264
288.3000	-0.668809	337.282
288.2000	-0.722367	337.282
288.1000	-0.754045	337.274
288.0000	-0.78283	337.256
287.9000	-0.824834	337.221
287.8000	-0.815948	337.201
287.7000	-0.77209	337.176
287.6000	-0.760634	337.155
287.5000	-0.724665	337.119
287.4000	-0.670435	337.097
287.3000	-0.601021	337.082
287.2000	-0.535962	337.066
287.1000	-0.480849	337.055
287.0000	-0.510993	337.016
286.9000	-0.568813	336.993
286.8000	-0.628262	336.977
286.7000	-0.604268	336.961
286.6000	-0.599208	336.936
286.5000	-0.605774	336.926
286.4000	-0.614795	336.913
286.3000	-0.660395	336.907
286.2000	-0.713362	336.9
286.1000	-0.72862	336.89
286.0000	-0.629605	336.896
285.9000	-0.622418	336.891
285.8000	-0.668949	336.889
285.7000	-0.718698	336.863
285.6000	-0.742375	336.841
285.5000	-0.711819	336.844
285.4000	-0.726878	336.84
285.3000	-0.731795	336.841
285.2000	-0.854493	336.81
285.1000	-0.91742	336.791
285.0000	-0.893494	336.799
284.9000	-0.840917	336.796
284.8000	-0.829814	336.798
284.7000	-0.857352	336.772
284.6000	-0.827943	336.757
284.5000	-0.811403	336.765
284.4000	-0.764186	336.774
284.3000	-0.740804	336.786
284.2000	-0.744621	336.763
284.1000	-0.811627	336.751
284.0000	-0.854347	336.73
283.9000	-0.896092	336.732
283.8000	-0.974118	336.74
283.7000	-1.05295	336.725
283.6000	-1.13568	336.708
283.5000	-1.21246	336.692
283.4000	-1.23786	336.688
283.3000	-1.22706	336.705
283.2000	-1.24506	336.723
283.1000	-1.24326	336.731
283.0000	-1.2477	336.722
282.9000	-1.24897	336.715
282.8000	-1.16848	336.712
282.7000	-1.08456	336.731
282.6000	-1.01747	336.748
282.5000	-1.09513	336.744
282.4000	-1.08815	336.737
282.3000	-1.07333	336.735
282.2000	-1.07429	336.733
282.1000	-0.972721	336.756
282.0000	-0.899331	336.779
281.9000	-0.879823	336.787
281.8000	-0.894812	336.785
281.7000	-0.843097	336.784
281.6000	-0.781346	336.784
281.5000	-0.740651	336.785
281.4000	-0.68492	336.809
281.3000	-0.642766	336.818
281.2000	-0.64881	336.816
281.1000	-0.640482	336.812
281.0000	-0.579973	336.81
280.9000	-0.528448	336.81
280.8000	-0.530051	336.805
280.7000	-0.519471	336.806
280.6000	-0.518527	336.809
280.5000	-0.511896	336.804
280.4000	-0.505142	336.796
280.3000	-0.501794	336.787
280.2000	-0.590359	336.779
280.1000	-0.635719	336.77
280.0000	-0.723515	336.758
279.9000	-0.770303	336.743
279.8000	-0.826414	336.717
279.7000	-0.924863	336.705
279.6000	-0.958658	336.699
279.5000	-0.976862	336.697
279.4000	-0.880748	336.703
279.3000	-0.852523	336.703
279.2000	-0.746262	336.708
279.1000	-0.702157	336.715
