TITLE	ACE2_3uL_0.12uM
DATA TYPE	
ORIGIN	JASCO
OWNER	
DATE	24/02/26
TIME	13:16:03
SPECTROMETER/DATA SYSTEM	
LOCALE	1033
RESOLUTION	
DELTAX	-0.1
XUNITS	NANOMETERS
YUNITS	CD [mdeg]
Y2UNITS	HT [V]
FIRSTX	  350.0000
LASTX	  190.0000
NPOINTS	    1601
FIRSTY	     1.05708
MAXY	     5.25952
MINY	    -1.80626
XYDATA
350.0000	1.05708	473.556
349.9000	1.10742	472.934
349.8000	1.4995	472.085
349.7000	1.72788	471.22
349.6000	1.68392	470.59
349.5000	1.17041	470.033
349.4000	0.615083	469.124
349.3000	0.222627	468.486
349.2000	0.0892314	467.959
349.1000	-0.0211161	467.159
349.0000	0.087559	466.54
348.9000	0.162179	465.979
348.8000	0.105145	465.069
348.7000	0.021167	464.136
348.6000	0.231514	463.471
348.5000	0.518295	462.914
348.4000	0.785231	462.03
348.3000	0.80567	461.345
348.2000	0.816607	460.143
348.1000	0.793881	455.796
348.0000	0.872801	455.229
347.9000	1.10251	454.678
347.8000	0.956553	453.185
347.7000	0.900318	448.924
347.6000	0.960104	443.424
347.5000	0.998398	428.02
347.4000	0.785461	410.523
347.3000	0.749032	396.609
347.2000	0.716009	378.679
347.1000	0.721127	364.53
347.0000	0.834517	359.835
346.9000	0.765317	361.271
346.8000	0.609111	352.556
346.7000	0.361399	348.312
346.6000	0.263095	347.501
346.5000	0.331231	347.967
346.4000	0.125735	366.382
346.3000	-0.111288	382.287
346.2000	-0.32621	388.844
346.1000	-0.273456	387.787
346.0000	-0.248839	393.541
345.9000	-0.365555	408.277
345.8000	-0.310162	424.703
345.7000	-0.531308	440.941
345.6000	-0.686486	443.424
345.5000	-0.722782	442.515
345.4000	-0.320175	441.973
345.3000	-0.272187	441.509
345.2000	-0.39353	440.778
345.1000	-0.076177	440.041
345.0000	0.210469	439.508
344.9000	0.46304	438.832
344.8000	0.649763	438.143
344.7000	0.922286	437.614
344.6000	0.951459	436.944
344.5000	0.910892	436.262
344.4000	1.06823	435.766
344.3000	1.03812	435.108
344.2000	0.925994	434.43
344.1000	0.776155	428.859
344.0000	0.731432	428.47
343.9000	0.61396	427.803
343.8000	0.428578	427.297
343.7000	0.404835	426.853
343.6000	0.472284	426.187
343.5000	0.394911	425.698
343.4000	0.199307	425.28
343.3000	0.266473	428.695
343.2000	0.344708	428.926
343.1000	0.372773	428.476
343.0000	0.461113	427.861
342.9000	0.472689	427.232
342.8000	0.346783	426.756
342.7000	0.160314	426.132
342.6000	0.195828	425.501
342.5000	0.0817474	425.05
342.4000	0.120028	424.486
342.3000	0.342626	423.917
342.2000	0.440754	423.482
342.1000	0.309352	422.92
342.0000	0.158447	421.339
341.9000	0.125062	409.554
341.8000	0.229799	393.524
341.7000	0.300612	376.542
341.6000	0.290862	359.474
341.5000	0.0853149	342.279
341.4000	0.155465	325.057
341.3000	0.347866	307.967
341.2000	0.502201	290.804
341.1000	0.699407	281.421
341.0000	0.612195	277.541
340.9000	0.577278	264.882
340.8000	0.621816	248.993
340.7000	0.648758	243.343
340.6000	0.560802	231.596
340.5000	0.389201	215.98
340.4000	0.366222	199.567
340.3000	0.430889	182.929
340.2000	0.564187	167.42
340.1000	0.830381	176.576
340.0000	0.744053	191.073
339.9000	0.719794	200.193
339.8000	0.700942	207.97
339.7000	0.618061	222.173
339.6000	0.532389	237.806
339.5000	0.438357	253.823
339.4000	0.269221	269.824
339.3000	0.0425995	278.084
339.2000	0.143303	280.296
339.1000	0.282679	285.87
339.0000	0.26408	294.508
338.9000	0.377369	296.139
338.8000	0.51756	296.29
338.7000	0.484066	296.081
338.6000	0.559253	295.754
338.5000	0.660416	293.237
338.4000	0.686707	305.053
338.3000	0.530207	315.792
338.2000	0.501048	305.805
338.1000	0.593823	303.043
338.0000	0.686835	302.169
337.9000	0.697442	301.744
337.8000	0.567807	301.507
337.7000	0.515406	301.234
337.6000	0.448093	289.552
337.5000	0.297075	274.213
337.4000	0.191916	268.979
337.3000	0.0392598	267.566
337.2000	-0.124405	266.987
337.1000	-0.178515	266.645
337.0000	-0.10658	266.352
336.9000	-0.0354624	267.032
336.8000	-0.0563792	273.548
336.7000	-0.102906	282.558
336.6000	-0.0572449	284.314
336.5000	-0.0533386	284.529
336.4000	-0.134724	284.453
336.3000	-0.277765	284.224
336.2000	-0.492237	283.965
336.1000	-0.503093	283.146
336.0000	-0.568267	281.652
335.9000	-0.321123	267.904
335.8000	-0.19921	264.271
335.7000	-0.16309	263.23
335.6000	-0.0367686	262.784
335.5000	0.104811	263.002
335.4000	0.370166	274.841
335.3000	0.639745	277.476
335.2000	0.807344	277.9
335.1000	0.766588	277.837
335.0000	0.619872	277.725
334.9000	0.656284	277.526
334.8000	0.584336	277.306
334.7000	0.517572	277.048
334.6000	0.446775	266.609
334.5000	0.277251	261.642
334.4000	0.113037	260.285
334.3000	0.156041	259.788
334.2000	0.125582	259.481
334.1000	0.0195953	259.188
334.0000	0.0917918	258.944
333.9000	0.140803	258.768
333.8000	0.301389	258.552
333.7000	0.385992	258.331
333.6000	0.33799	258.082
333.5000	0.236788	257.86
333.4000	0.192666	257.633
333.3000	0.271626	257.408
333.2000	0.26543	257.214
333.1000	0.242552	257.018
333.0000	0.106251	256.796
332.9000	-0.0559916	256.594
332.8000	-0.143687	262.652
332.7000	-0.159061	264.404
332.6000	-0.175994	264.653
332.5000	-0.267694	264.531
332.4000	-0.292583	264.355
332.3000	-0.220619	264.156
332.2000	0.0813741	263.935
332.1000	0.178572	263.732
332.0000	0.315991	258.867
331.9000	0.35747	255.437
331.8000	0.328151	260.636
331.7000	0.443692	266.252
331.6000	0.494294	267.385
331.5000	0.483367	267.428
331.4000	0.296778	267.288
331.3000	0.126671	267.113
331.2000	-0.0692586	266.917
331.1000	-0.146526	266.744
331.0000	-0.000432332	265.278
330.9000	0.0539408	255.356
330.8000	0.0228495	252.967
330.7000	0.0814219	252.255
330.6000	0.129606	251.962
330.5000	0.226884	251.761
330.4000	0.437327	251.558
330.3000	0.517927	251.382
330.2000	0.405005	251.141
330.1000	0.303976	250.945
330.0000	0.293047	250.775
329.9000	0.382478	250.575
329.8000	0.24561	261.232
329.7000	0.177479	266.668
329.6000	0.0446859	267.758
329.5000	-0.0128042	267.896
329.4000	0.00380554	267.776
329.3000	-0.0788676	280.189
329.2000	-0.120713	294.908
329.1000	-0.221841	309.56
329.0000	-0.315363	309.468
328.9000	-0.383537	302.853
328.8000	-0.336733	301.011
328.7000	-0.404698	301.592
328.6000	-0.360404	312.413
328.5000	-0.402994	307.477
328.4000	-0.458251	292.641
328.3000	-0.343057	290.502
328.2000	-0.182857	286.056
328.1000	-0.0981842	284.73
328.0000	-0.0835927	284.345
327.9000	-0.00126851	284.082
327.8000	0.101465	273.752
327.7000	0.210627	269.402
327.6000	0.234494	268.326
327.5000	0.0639303	260.306
327.4000	-0.154504	249.547
327.3000	-0.182262	246.911
327.2000	-0.258555	246.152
327.1000	-0.321842	245.92
327.0000	-0.377949	245.837
326.9000	-0.340588	245.661
326.8000	-0.223478	245.477
326.7000	-0.0951589	245.294
326.6000	-0.0363393	245.197
326.5000	-0.133246	245.139
326.4000	-0.0992167	244.954
326.3000	-0.103507	244.747
326.2000	-0.275558	244.535
326.1000	-0.290016	244.407
326.0000	-0.341009	244.189
325.9000	-0.244258	243.975
325.8000	-0.174459	243.758
325.7000	-0.0301208	243.256
325.6000	-0.0229635	243.091
325.5000	0.0104736	242.922
325.4000	0.194033	242.756
325.3000	0.166251	242.581
325.2000	0.118045	242.502
325.1000	0.107269	242.472
325.0000	0.0511963	242.343
324.9000	0.0606242	242.26
324.8000	0.0871623	242.373
324.7000	0.161365	242.28
324.6000	0.209028	242.213
324.5000	0.203856	242.048
324.4000	0.304848	241.879
324.3000	0.264294	241.678
324.2000	0.18012	241.544
324.1000	0.124035	241.105
324.0000	0.0903717	235.23
323.9000	0.0387909	232.921
323.8000	-0.0591878	227.114
323.7000	-0.0926198	223.332
323.6000	-0.0571889	211.474
323.5000	-0.124257	197.649
323.4000	-0.0655507	183.345
323.3000	-0.00233053	169.006
323.2000	-0.0134226	170.203
323.1000	0.0368418	172.383
323.0000	0.0867371	178.513
322.9000	0.0930196	179.695
322.8000	0.0416809	189.589
322.7000	0.0356333	202.708
322.6000	0.0453684	216.553
322.5000	0.0695679	229.745
322.4000	0.103027	238.359
322.3000	0.0295675	237.627
322.2000	-0.0238444	237.381
322.1000	-0.0223287	237.178
322.0000	0.0426829	236.973
321.9000	0.120191	236.82
321.8000	0.0794251	236.631
321.7000	0.127649	237.094
321.6000	0.104459	237.228
321.5000	0.165851	237.078
321.4000	0.162671	236.995
321.3000	0.2247	236.905
321.2000	0.22889	236.833
321.1000	0.119931	236.731
321.0000	0.0293335	236.679
320.9000	-0.0506093	236.581
320.8000	-0.119701	236.482
320.7000	-0.0774099	236.373
320.6000	-0.0674927	236.265
320.5000	-0.0270884	236.191
320.4000	-0.0151611	236.044
320.3000	0.0651255	235.88
320.2000	0.24932	232.118
320.1000	0.461912	232.678
320.0000	0.566579	247.334
319.9000	0.53655	260.875
319.8000	0.509987	274.668
319.7000	0.520238	288.226
319.6000	0.384075	302.115
319.5000	0.270676	316.043
319.4000	0.188492	333.681
319.3000	0.0408081	344.177
319.2000	-0.0807048	335.775
319.1000	-0.0790934	322.68
319.0000	-0.0467072	308.772
318.9000	-0.0514832	294.988
318.8000	-0.0167267	280.97
318.7000	0.0574839	266.795
318.6000	0.110869	252.606
318.5000	0.133708	239.383
318.4000	0.167029	234.893
318.3000	0.130173	233.83
318.2000	0.0421865	233.512
318.1000	-0.0587077	233.372
318.0000	-0.0216237	233.242
317.9000	-0.0363169	233.17
317.8000	-0.0525838	233.099
317.7000	-0.0499308	233.045
317.6000	-0.0962219	232.941
317.5000	-0.137925	232.853
317.4000	-0.0966481	232.74
317.3000	0.0258911	232.615
317.2000	-0.00495911	232.474
317.1000	0.0382813	232.345
317.0000	0.0996257	232.182
316.9000	0.104329	232.022
316.8000	0.0939473	231.875
316.7000	0.171217	231.745
316.6000	0.164095	231.618
316.5000	0.087617	231.511
316.4000	0.111095	231.382
316.3000	0.0230133	231.268
316.2000	-0.00677592	231.176
316.1000	-0.0854279	231.104
316.0000	-0.130638	230.882
315.9000	-0.152066	230.313
315.8000	-0.149344	230.223
315.7000	-0.094221	230.112
315.6000	-0.0646342	230.039
315.5000	-0.0621236	229.928
315.4000	-0.0491404	229.827
315.3000	-0.0300832	229.687
315.2000	0.00888367	229.541
315.1000	-0.00201925	226.205
315.0000	0.0786519	214.745
314.9000	0.194106	201.485
314.8000	0.17791	187.839
314.7000	0.154298	174.105
314.6000	0.0860321	160.365
314.5000	0.0889669	146.643
314.4000	0.180353	132.932
314.3000	0.203468	120.463
314.2000	0.153101	116.539
314.1000	0.0349955	128.293
314.0000	0.0126261	141.709
313.9000	0.0403249	155.196
313.8000	0.0949473	168.345
313.7000	0.131738	177.262
313.6000	0.114122	187.269
313.5000	0.0872111	200.821
313.4000	0.111909	214.342
313.3000	0.0400777	219.556
313.2000	-0.0785004	210.842
313.1000	-0.132594	198.884
313.0000	-0.186255	185.716
312.9000	-0.163027	174.348
312.8000	-0.137933	167.197
312.7000	-0.0568298	153.546
312.6000	0.0162669	142.298
312.5000	0.091925	129.255
312.4000	0.272592	120.948
312.3000	0.403056	118.58
312.2000	0.467001	117.787
312.1000	0.531487	117.544
312.0000	0.513835	117.433
311.9000	0.524188	117.354
311.8000	0.520675	115.272
311.7000	0.472769	114.3
311.6000	0.411208	114.026
311.5000	0.326051	113.925
311.4000	0.314941	113.862
311.3000	0.324786	117.547
311.2000	0.377948	131.632
311.1000	0.346841	145.046
311.0000	0.296167	158.447
310.9000	0.350333	171.854
310.8000	0.387004	185.233
310.7000	0.425303	195.56
310.6000	0.470499	198.138
310.5000	0.509107	198.71
310.4000	0.415369	185.469
310.3000	0.357127	171.987
310.2000	0.347191	158.536
310.1000	0.377694	145.077
310.0000	0.369477	131.623
309.9000	0.454973	118.991
309.8000	0.442273	114.63
309.7000	0.393054	113.605
309.6000	0.400422	113.344
309.5000	0.465707	113.26
309.4000	0.510997	113.214
309.3000	0.570099	113.148
309.2000	0.622057	113.101
309.1000	0.545261	113.051
309.0000	0.547506	113.009
308.9000	0.572604	122.545
308.8000	0.550937	130.518
308.7000	0.543326	137.551
308.6000	0.517919	151.157
308.5000	0.435957	160.699
308.4000	0.343144	162.966
308.3000	0.377974	163.482
308.2000	0.401543	163.566
308.1000	0.365816	158.843
308.0000	0.410828	147.435
307.9000	0.453079	145.58
307.8000	0.529247	141.946
307.7000	0.531303	132.217
307.6000	0.492713	128.948
307.5000	0.458955	128.157
307.4000	0.396473	127.948
307.3000	0.419929	127.879
307.2000	0.458677	127.839
307.1000	0.422031	127.785
307.0000	0.331597	117.474
306.9000	0.322301	113.464
306.8000	0.320766	126.032
306.7000	0.23469	139.09
306.6000	0.191158	152.266
306.5000	0.121631	165.481
306.4000	0.0442067	178.669
306.3000	0.00928853	191.877
306.2000	0.0891886	205.077
306.1000	0.065565	218.28
306.0000	0.0249583	222.512
305.9000	0.0200358	222.341
305.8000	0.0818146	228.366
305.7000	0.193738	229.749
305.6000	0.241107	230.026
305.5000	0.203801	230.06
305.4000	0.162337	230.053
305.3000	0.191536	238.92
305.2000	0.268824	241.454
305.1000	0.34869	242.014
305.0000	0.386122	237.169
304.9000	0.362613	234.727
304.8000	0.283482	234.14
304.7000	0.421715	233.97
304.6000	0.482537	233.859
304.5000	0.470745	227.022
304.4000	0.444558	222.73
304.3000	0.459355	221.672
304.2000	0.446908	221.393
304.1000	0.479314	221.299
304.0000	0.549152	221.253
303.9000	0.473686	221.179
303.8000	0.361103	221.122
303.7000	0.28559	221.085
303.6000	0.2257	221.008
303.5000	0.1914	223.186
303.4000	0.178671	223.826
303.3000	0.131093	223.901
303.2000	-0.00397339	223.86
303.1000	-0.0623189	223.816
303.0000	-0.112469	223.785
302.9000	-0.0652934	223.714
302.8000	-0.0680898	223.664
302.7000	-0.172311	222.446
302.6000	-0.224335	230.841
302.5000	-0.337379	244.471
302.4000	-0.330707	257.507
302.3000	-0.325367	270.526
302.2000	-0.340507	283.521
302.1000	-0.344295	295.992
302.0000	-0.379777	307.146
301.9000	-0.299514	310.221
301.8000	-0.253417	303.285
301.7000	-0.195813	291.458
301.6000	-0.139432	278.275
301.5000	-0.0218679	265.15
301.4000	0.0740377	252.02
301.3000	0.121214	239.452
301.2000	0.108467	226.558
301.1000	0.16458	221.276
301.0000	0.160109	222.681
300.9000	0.16061	229.786
300.8000	0.225837	235.571
300.7000	0.218893	244.946
300.6000	0.196276	247.023
300.5000	0.25733	247.481
300.4000	0.295105	247.574
300.3000	0.253593	247.549
300.2000	0.296439	247.507
300.1000	0.356225	249.884
300.0000	0.38135	256.715
299.9000	0.349394	247.551
299.8000	0.274481	244.701
299.7000	0.18057	244.01
299.6000	0.101036	243.812
299.5000	0.136788	243.739
299.4000	0.119933	243.701
299.3000	0.0892131	236.278
299.2000	0.0364044	225.489
299.1000	-0.00183411	220.419
299.0000	0.092513	219.23
298.9000	0.115715	218.926
298.8000	0.12948	218.835
298.7000	0.112047	218.773
298.6000	0.0355865	225.501
298.5000	-0.0413696	229.602
298.4000	-0.135625	230.505
298.3000	-0.125115	230.689
298.2000	-0.148655	230.707
298.1000	-0.118	230.681
298.0000	-0.0612712	230.649
297.9000	-0.00620931	230.621
297.8000	-0.0234772	227.326
297.7000	0.0076355	220.406
297.6000	0.0728038	218.836
297.5000	0.115595	218.432
297.4000	0.114559	218.315
297.3000	0.0285319	218.267
297.2000	-0.066216	218.214
297.1000	-0.142769	218.176
297.0000	-0.173176	218.142
296.9000	-0.200193	218.095
296.8000	-0.216039	218.062
296.7000	-0.205502	218.036
296.6000	-0.268398	218.012
296.5000	-0.264692	217.978
296.4000	-0.188027	217.952
296.3000	-0.179347	217.937
296.2000	-0.18258	217.907
296.1000	-0.14861	217.885
296.0000	-0.0957682	217.869
295.9000	-0.038443	217.841
295.8000	0.0158661	217.803
295.7000	0.0589518	217.778
295.6000	0.0345673	217.752
295.5000	0.0161641	217.714
295.4000	0.0146545	217.668
295.3000	0.0576497	217.64
295.2000	0.0767741	217.602
295.1000	0.0153615	217.553
295.0000	-0.0948446	217.523
294.9000	-0.108674	217.488
294.8000	-0.140784	217.443
294.7000	-0.157301	217.415
294.6000	-0.183786	217.392
294.5000	-0.169077	217.364
294.4000	-0.194777	217.343
294.3000	-0.201811	217.326
294.2000	-0.146275	217.295
294.1000	-0.126701	217.271
294.0000	-0.087262	217.254
293.9000	-0.0445302	217.222
293.8000	0.0382456	217.201
293.7000	0.0511251	217.186
293.6000	0.0523895	217.15
293.5000	0.0358327	217.11
293.4000	0.0395396	217.094
293.3000	0.0379364	217.072
293.2000	-0.00836792	217.04
293.1000	-0.045755	217.028
293.0000	-0.0798208	217.001
292.9000	-0.0861481	216.969
292.8000	-0.123184	216.955
292.7000	-0.109948	216.939
292.6000	-0.102667	216.917
292.5000	-0.044691	216.878
292.4000	-0.0558726	216.856
292.3000	-0.0436625	216.823
292.2000	-0.0744944	216.792
292.1000	-0.159492	216.775
292.0000	-0.235566	216.748
291.9000	-0.251272	216.713
291.8000	-0.276285	216.681
291.7000	-0.379675	216.666
291.6000	-0.404141	216.638
291.5000	-0.431181	216.609
291.4000	-0.399081	216.593
291.3000	-0.295867	216.558
291.2000	-0.201955	216.517
291.1000	-0.102805	216.477
291.0000	-0.0566722	216.447
290.9000	0.0409688	216.405
290.8000	0.169341	216.351
290.7000	0.214727	216.292
290.6000	0.269563	216.225
290.5000	0.306581	216.142
290.4000	0.361178	216.058
290.3000	0.415561	215.988
290.2000	0.441123	215.901
290.1000	0.378282	215.81
290.0000	0.311949	215.725
289.9000	0.2688	215.665
289.8000	0.271471	215.613
289.7000	0.25782	215.574
289.6000	0.243786	215.564
289.5000	0.221556	215.575
289.4000	0.214465	215.597
289.3000	0.240263	215.642
289.2000	0.228199	215.695
289.1000	0.232689	215.762
289.0000	0.272825	215.83
288.9000	0.233277	215.894
288.8000	0.19681	216.127
288.7000	0.168459	216.455
288.6000	0.136563	216.548
288.5000	0.0853353	216.588
288.4000	0.104894	216.608
288.3000	0.128977	216.622
288.2000	0.058079	216.623
288.1000	-0.0265269	216.617
288.0000	-0.0301849	216.606
287.9000	0.033962	216.181
287.8000	0.112273	216.072
287.7000	0.214535	216.04
287.6000	0.223575	216.019
287.5000	0.214128	215.997
287.4000	0.266496	215.985
287.3000	0.344412	215.968
287.2000	0.340614	215.957
287.1000	0.301228	216.068
287.0000	0.253276	216.11
286.9000	0.198817	216.108
286.8000	0.209147	216.097
286.7000	0.157113	216.086
286.6000	0.0965454	216.059
286.5000	0.119813	216.049
286.4000	0.160627	216.045
286.3000	0.264682	215.976
286.2000	0.229285	215.859
286.1000	0.131587	215.819
286.0000	0.114535	215.81
285.9000	0.0690887	215.803
285.8000	0.155138	215.799
285.7000	0.134244	215.788
285.6000	0.10452	215.767
285.5000	0.0766113	215.76
285.4000	0.104998	215.762
285.3000	0.22938	215.762
285.2000	0.265395	215.757
285.1000	0.288368	215.743
285.0000	0.286923	215.742
284.9000	0.286241	215.742
284.8000	0.327938	215.743
284.7000	0.309112	215.736
284.6000	0.227672	215.721
284.5000	0.131837	215.722
284.4000	0.102207	215.726
284.3000	0.0626943	215.726
284.2000	0.113659	215.727
284.1000	0.130731	215.715
284.0000	0.154251	215.703
283.9000	0.189343	215.704
283.8000	0.192862	215.709
283.7000	0.252614	215.707
283.6000	0.249471	215.696
283.5000	0.33171	215.696
283.4000	0.386688	215.69
283.3000	0.406397	215.699
283.2000	0.405068	215.716
283.1000	0.397755	215.72
283.0000	0.464148	215.717
282.9000	0.526624	215.712
282.8000	0.515617	215.712
282.7000	0.427341	215.718
282.6000	0.330935	215.726
282.5000	0.309299	215.731
282.4000	0.310523	215.726
282.3000	0.30721	215.724
282.2000	0.242987	215.721
282.1000	0.113123	215.73
282.0000	0.0290212	215.737
281.9000	0.0263224	215.738
281.8000	0.0401449	215.738
281.7000	0.0409088	215.736
281.6000	0.0321177	215.737
281.5000	-0.0302419	215.733
281.4000	-0.0225342	215.745
281.3000	0.0237803	215.755
281.2000	0.141796	215.755
281.1000	0.236403	215.752
281.0000	0.209074	215.748
280.9000	0.214456	215.745
280.8000	0.259413	215.739
280.7000	0.255969	215.735
280.6000	0.25477	215.736
280.5000	0.284763	215.728
280.4000	0.312379	215.723
280.3000	0.266619	215.716
280.2000	0.389496	215.709
280.1000	0.443567	215.703
280.0000	0.409919	215.697
279.9000	0.413092	215.693
279.8000	0.469639	215.681
279.7000	0.533745	215.677
279.6000	0.577474	215.672
279.5000	0.566761	215.67
279.4000	0.509325	215.669
279.3000	0.43649	215.668
279.2000	0.465266	215.671
279.1000	0.519705	215.671
279.0000	0.484972	215.671
278.9000	0.450296	215.668
278.8000	0.345549	215.672
278.7000	0.32119	215.677
278.6000	0.304241	215.683
278.5000	0.279526	215.691
278.4000	0.307883	215.696
278.3000	0.165561	215.702
278.2000	0.113723	215.711
