TITLE	ACE2
DATA TYPE	
ORIGIN	JASCO
OWNER	
DATE	24/04/09
TIME	13:48:39
SPECTROMETER/DATA SYSTEM	
LOCALE	1033
RESOLUTION	
DELTAX	-0.1
XUNITS	NANOMETERS
YUNITS	CD [mdeg]
Y2UNITS	HT [V]
FIRSTX	  350.0000
LASTX	  190.0000
NPOINTS	    1601
FIRSTY	     0.50194
MAXY	     6.32057
MINY	    -2.47382
XYDATA
350.0000	0.501942	483.169
349.9000	0.749014	482.551
349.8000	0.718687	481.635
349.7000	0.813307	480.706
349.6000	0.679333	480.036
349.5000	0.197184	479.454
349.4000	-0.144724	478.566
349.3000	-0.223623	477.936
349.2000	-0.327516	477.406
349.1000	-0.483319	476.578
349.0000	-0.699326	475.96
348.9000	-0.55135	475.431
348.8000	-0.327012	474.584
348.7000	-0.0280406	473.727
348.6000	0.119806	473.108
348.5000	0.16447	472.567
348.4000	0.280225	471.709
348.3000	0.206285	471.056
348.2000	0.363893	470.486
348.1000	0.439513	469.62
348.0000	0.234505	468.966
347.9000	0.0255951	468.402
347.8000	0.0562401	467.562
347.7000	0.100172	466.709
347.6000	0.146015	466.093
347.5000	0.299602	465.578
347.4000	0.536711	464.777
347.3000	0.384416	464.169
347.2000	0.296132	463.659
347.1000	0.378445	462.891
347.0000	0.319603	462.324
346.9000	0.109824	461.828
346.8000	-0.00367856	461.063
346.7000	-0.131303	460.285
346.6000	-0.14509	459.712
346.5000	-0.097678	458.962
346.4000	0.0738921	458.199
346.3000	0.0861167	457.612
346.2000	0.169242	456.835
346.1000	0.279371	456.04
346.0000	0.348356	455.45
345.9000	0.464848	454.941
345.8000	0.244989	454.144
345.7000	0.0705715	453.554
345.6000	-0.0570364	453.047
345.5000	-0.017878	452.315
345.4000	0.0937718	451.787
345.3000	0.144335	451.347
345.2000	0.163881	450.65
345.1000	0.213241	449.946
345.0000	0.417695	449.437
344.9000	0.756444	448.789
344.8000	0.922885	448.119
344.7000	0.711259	447.599
344.6000	0.59266	446.926
344.5000	0.461524	446.24
344.4000	0.353445	445.727
344.3000	0.333463	445.043
344.2000	0.10539	444.336
344.1000	0.124315	443.801
344.0000	-0.253979	443.115
343.9000	-0.353107	442.432
343.8000	-0.409441	441.934
343.7000	-0.58036	441.501
343.6000	-0.723429	440.843
343.5000	-0.893285	440.373
343.4000	-1.06627	439.989
343.3000	-1.09045	439.385
343.2000	-1.0436	438.943
343.1000	-0.875236	438.561
343.0000	-0.723448	437.98
342.9000	-0.668614	437.376
342.8000	-0.701777	436.924
342.7000	-0.580135	436.309
342.6000	-0.518874	435.673
342.5000	-0.442121	435.196
342.4000	-0.565838	434.589
342.3000	-0.561355	433.978
342.2000	-0.535562	433.505
342.1000	-0.532273	432.911
342.0000	-0.361585	432.321
341.9000	-0.337896	431.901
341.8000	-0.261866	431.345
341.7000	-0.382393	430.776
341.6000	-0.261405	430.359
341.5000	-0.144546	429.836
341.4000	-0.175725	429.304
341.3000	-0.171798	428.907
341.2000	-0.180369	428.342
341.1000	-0.21711	427.76
341.0000	-0.209603	427.333
340.9000	-0.0756917	426.797
340.8000	-0.121443	426.24
340.7000	-0.392327	425.796
340.6000	-0.506225	425.239
340.5000	-0.456285	424.676
340.4000	-0.369362	424.271
340.3000	-0.348669	423.734
340.2000	-0.248966	423.196
340.1000	-0.211849	422.792
340.0000	-0.155833	422.296
339.9000	0.0345516	421.803
339.8000	0.11083	421.434
339.7000	0.0969687	420.968
339.6000	0.0711735	420.5
339.5000	0.0713782	420.182
339.4000	0.200184	419.734
339.3000	0.203428	419.258
339.2000	0.165036	418.736
339.1000	0.111541	418.262
339.0000	0.194104	417.778
338.9000	0.279719	417.225
338.8000	0.406279	416.718
338.7000	0.35197	416.194
338.6000	0.321968	415.636
338.5000	0.235503	415.149
338.4000	0.134448	414.786
338.3000	0.240386	414.343
338.2000	0.198538	413.892
338.1000	0.200483	413.574
338.0000	0.151842	413.146
337.9000	0.0677548	412.711
337.8000	-0.00580852	412.407
337.7000	-0.0275897	412.021
337.6000	-0.0853317	411.618
337.5000	-0.178397	411.307
337.4000	-0.237698	410.902
337.3000	-0.235518	410.479
337.2000	-0.394055	410.009
337.1000	-0.464795	409.592
337.0000	-0.411134	409.17
336.9000	-0.43732	408.708
336.8000	-0.32513	408.3
336.7000	-0.118847	407.896
336.6000	-0.121162	407.448
336.5000	-0.319728	407.034
336.4000	-0.358569	406.748
336.3000	-0.358919	406.353
336.2000	-0.428749	405.948
336.1000	-0.480867	405.646
336.0000	-0.575193	405.263
335.9000	-0.806539	404.854
335.8000	-0.949401	404.403
335.7000	-0.889288	404.002
335.6000	-0.935356	403.593
335.5000	-0.775104	403.18
335.4000	-0.687987	402.82
335.3000	-0.567354	402.462
335.2000	-0.581485	402.072
335.1000	-0.471639	401.736
335.0000	-0.466606	401.51
334.9000	-0.416311	401.189
334.8000	-0.32678	400.856
334.7000	-0.309811	400.486
334.6000	-0.444863	400.159
334.5000	-0.562267	399.822
334.4000	-0.641632	399.426
334.3000	-0.629889	399.06
334.2000	-0.704773	398.678
334.1000	-0.729326	398.266
334.0000	-0.704705	397.907
333.9000	-0.680264	397.641
333.8000	-0.668008	397.298
333.7000	-0.572626	396.95
333.6000	-0.415481	396.577
333.5000	-0.369134	396.252
333.4000	-0.375214	395.928
333.3000	-0.359858	395.589
333.2000	-0.282126	395.299
333.1000	-0.316098	394.999
333.0000	-0.327129	394.675
332.9000	-0.291502	394.384
332.8000	-0.3493	394.037
332.7000	-0.442829	393.73
332.6000	-0.41865	393.415
332.5000	-0.372111	393.078
332.4000	-0.366313	392.779
332.3000	-0.300283	392.472
332.2000	-0.296326	392.108
332.1000	-0.349074	391.773
332.0000	-0.317178	391.429
331.9000	-0.235398	391.145
331.8000	-0.164105	390.861
331.7000	-0.0766544	390.542
331.6000	-0.0459148	390.242
331.5000	-0.127656	389.821
331.4000	-0.150912	389.497
331.3000	-0.122561	389.219
331.2000	-0.105466	388.909
331.1000	-0.151139	388.627
331.0000	-0.208379	388.334
330.9000	-0.188255	388.028
330.8000	-0.286693	387.758
330.7000	-0.261705	387.451
330.6000	-0.117196	387.187
330.5000	-0.0653048	386.921
330.4000	-0.144736	386.628
330.3000	-0.194925	386.375
330.2000	-0.189612	386.013
330.1000	-0.24469	385.717
330.0000	-0.231026	385.452
329.9000	-0.214266	385.162
329.8000	-0.321288	384.904
329.7000	-0.368339	384.56
329.6000	-0.244632	384.292
329.5000	-0.188826	384.051
329.4000	-0.197762	383.753
329.3000	-0.216249	383.488
329.2000	-0.19567	383.126
329.1000	-0.211215	382.84
329.0000	-0.135589	382.598
328.9000	-0.181462	382.318
328.8000	-0.388687	382.06
328.7000	-0.367202	381.716
328.6000	-0.392186	381.462
328.5000	-0.388852	381.253
328.4000	-0.426214	380.996
328.3000	-0.412932	380.77
328.2000	-0.423441	380.471
328.1000	-0.461997	380.236
328.0000	-0.360608	380.033
327.9000	-0.340221	379.764
327.8000	-0.34928	379.518
327.7000	-0.346978	379.267
327.6000	-0.406573	379.101
327.5000	-0.381291	378.981
327.4000	-0.392706	378.717
327.3000	-0.307364	378.47
327.2000	-0.305984	378.18
327.1000	-0.268842	377.984
327.0000	-0.327853	377.832
326.9000	-0.391336	377.553
326.8000	-0.277961	377.262
326.7000	-0.250162	376.938
326.6000	-0.219658	376.748
326.5000	-0.252871	376.622
326.4000	-0.40675	376.352
326.3000	-0.621197	376.078
326.2000	-0.68139	375.797
326.1000	-0.686128	375.613
326.0000	-0.72617	375.316
325.9000	-0.816674	375.034
325.8000	-0.854845	374.76
325.7000	-0.877738	374.502
325.6000	-0.813649	374.367
325.5000	-0.652745	374.092
325.4000	-0.596135	373.813
325.3000	-0.622811	373.525
325.2000	-0.611929	373.362
325.1000	-0.617772	373.253
325.0000	-0.638103	372.966
324.9000	-0.606502	372.663
324.8000	-0.605813	372.358
324.7000	-0.64514	372.204
324.6000	-0.597399	372.13
324.5000	-0.514526	371.868
324.4000	-0.42415	371.597
324.3000	-0.411486	371.34
324.2000	-0.390432	371.21
324.1000	-0.497532	370.957
324.0000	-0.543411	370.695
323.9000	-0.508205	370.424
323.8000	-0.431814	370.169
323.7000	-0.409525	370.044
323.6000	-0.497075	369.771
323.5000	-0.583282	369.472
323.4000	-0.626275	369.187
323.3000	-0.643255	369.037
323.2000	-0.673411	368.949
323.1000	-0.736116	368.686
323.0000	-0.894113	368.401
322.9000	-1.04726	368.118
322.8000	-1.0264	367.986
322.7000	-0.845656	367.75
322.6000	-0.670376	367.48
322.5000	-0.632935	367.201
322.4000	-0.554259	366.924
322.3000	-0.495284	366.754
322.2000	-0.342855	366.453
322.1000	-0.143332	366.128
322.0000	-0.0166803	365.815
321.9000	-0.0585471	365.628
321.8000	-0.109067	365.341
321.7000	-0.166708	365.037
321.6000	-0.203356	364.726
321.5000	-0.209469	364.446
321.4000	-0.330773	364.317
321.3000	-0.467395	364.133
321.2000	-0.606427	363.941
321.1000	-0.714535	363.751
321.0000	-0.761634	363.694
320.9000	-0.672879	363.556
320.8000	-0.589312	363.416
320.7000	-0.511124	363.283
320.6000	-0.461385	363.137
320.5000	-0.511419	363.081
320.4000	-0.503761	362.901
320.3000	-0.325805	362.71
320.2000	-0.191503	362.534
320.1000	-0.218417	362.466
320.0000	-0.242795	362.298
319.9000	-0.254625	362.11
319.8000	-0.286582	361.915
319.7000	-0.160356	361.72
319.6000	-0.11429	361.512
319.5000	-0.175468	361.356
319.4000	-0.324823	361.176
319.3000	-0.389689	360.965
319.2000	-0.419993	360.858
319.1000	-0.458158	360.651
319.0000	-0.563386	360.426
318.9000	-0.70119	360.21
318.8000	-0.808868	360.091
318.7000	-0.904542	359.866
318.6000	-0.909415	359.635
318.5000	-0.905565	359.434
318.4000	-0.895081	359.235
318.3000	-0.859738	359.036
318.2000	-0.798187	358.895
318.1000	-0.720595	358.747
318.0000	-0.653504	358.569
317.9000	-0.539651	358.497
317.8000	-0.547185	358.364
317.7000	-0.55937	358.212
317.6000	-0.619773	358.023
317.5000	-0.673277	357.912
317.4000	-0.789141	357.726
317.3000	-0.830569	357.533
317.2000	-0.738668	357.339
317.1000	-0.677917	357.147
317.0000	-0.673678	356.897
316.9000	-0.712073	356.687
316.8000	-0.647944	356.509
316.7000	-0.630161	356.334
316.6000	-0.559438	356.158
316.5000	-0.506665	356.015
316.4000	-0.497118	355.846
316.3000	-0.473481	355.668
316.2000	-0.406907	355.501
316.1000	-0.257926	355.384
316.0000	-0.230816	355.257
315.9000	-0.205379	355.091
315.8000	-0.201882	354.984
315.7000	-0.205031	354.81
315.6000	-0.190226	354.661
315.5000	-0.310362	354.491
315.4000	-0.362547	354.385
315.3000	-0.404253	354.191
315.2000	-0.447295	353.986
315.1000	-0.532852	353.794
315.0000	-0.560771	353.608
314.9000	-0.52871	353.422
314.8000	-0.520989	353.268
314.7000	-0.538777	353.103
314.6000	-0.602173	352.94
314.5000	-0.670019	352.787
314.4000	-0.704963	352.677
314.3000	-0.627215	352.542
314.2000	-0.575724	352.406
314.1000	-0.557954	352.226
314.0000	-0.554798	352.066
313.9000	-0.547568	351.905
313.8000	-0.507362	351.752
313.7000	-0.464656	351.533
313.6000	-0.417184	351.334
313.5000	-0.441106	351.146
313.4000	-0.536204	350.962
313.3000	-0.642052	350.786
313.2000	-0.708167	350.642
313.1000	-0.719604	350.49
313.0000	-0.745111	350.34
312.9000	-0.722154	350.203
312.8000	-0.701659	350.107
312.7000	-0.690041	349.976
312.6000	-0.598295	349.849
312.5000	-0.491722	349.693
312.4000	-0.455739	349.544
312.3000	-0.376194	349.371
312.2000	-0.251194	349.2
312.1000	-0.298534	348.978
312.0000	-0.41433	348.769
311.9000	-0.48681	348.566
311.8000	-0.595969	348.329
311.7000	-0.683679	348.141
311.6000	-0.750427	347.946
311.5000	-0.810931	347.793
311.4000	-0.930003	347.6
311.3000	-1.06457	347.475
311.2000	-1.04754	347.361
311.1000	-1.03206	347.272
311.0000	-1.00642	347.173
310.9000	-0.990592	347.09
310.8000	-1.01926	346.991
310.7000	-1.01884	346.903
310.6000	-1.03024	346.778
310.5000	-0.945322	346.673
310.4000	-0.824676	346.562
310.3000	-0.708489	346.46
310.2000	-0.614804	346.366
310.1000	-0.603277	346.288
310.0000	-0.547916	346.206
309.9000	-0.510854	346.137
309.8000	-0.488444	346.072
309.7000	-0.491533	345.983
309.6000	-0.565464	345.913
309.5000	-0.609342	345.805
309.4000	-0.665382	345.712
309.3000	-0.60763	345.578
309.2000	-0.592832	345.465
309.1000	-0.621413	345.293
309.0000	-0.615406	345.149
308.9000	-0.628719	345.013
308.8000	-0.603505	344.892
308.7000	-0.599091	344.785
308.6000	-0.609758	344.697
308.5000	-0.658468	344.592
308.4000	-0.795131	344.475
308.3000	-0.844058	344.406
308.2000	-0.866695	344.303
308.1000	-0.883552	344.229
308.0000	-0.869898	344.132
307.9000	-0.833268	344.047
307.8000	-0.856872	343.907
307.7000	-0.902817	343.798
307.6000	-0.799562	343.681
307.5000	-0.732824	343.519
307.4000	-0.697616	343.396
307.3000	-0.644594	343.28
307.2000	-0.639578	343.19
307.1000	-0.702861	343.061
307.0000	-0.74775	342.97
306.9000	-0.721306	342.877
306.8000	-0.714812	342.816
306.7000	-0.775122	342.745
306.6000	-0.763287	342.658
306.5000	-0.776215	342.578
306.4000	-0.743223	342.446
306.3000	-0.685605	342.346
306.2000	-0.628017	342.219
306.1000	-0.646128	342.106
306.0000	-0.715266	341.955
305.9000	-0.691902	341.849
305.8000	-0.700972	341.774
305.7000	-0.75487	341.655
305.6000	-0.784886	341.575
305.5000	-0.798944	341.502
305.4000	-0.829152	341.457
305.3000	-0.763341	341.367
305.2000	-0.681891	341.304
305.1000	-0.65785	341.229
305.0000	-0.638662	341.103
304.9000	-0.619862	341.018
304.8000	-0.630127	340.916
304.7000	-0.611099	340.823
304.6000	-0.570388	340.69
304.5000	-0.578778	340.587
304.4000	-0.608888	340.505
304.3000	-0.637195	340.391
304.2000	-0.630209	340.329
304.1000	-0.666133	340.274
304.0000	-0.67218	340.242
303.9000	-0.713781	340.158
303.8000	-0.743463	340.081
303.7000	-0.744701	340.033
303.6000	-0.683927	339.932
303.5000	-0.646486	339.862
303.4000	-0.623982	339.776
303.3000	-0.605901	339.658
303.2000	-0.558099	339.545
303.1000	-0.436919	339.464
303.0000	-0.352057	339.421
302.9000	-0.34403	339.329
302.8000	-0.411312	339.256
302.7000	-0.532297	339.2
302.6000	-0.512717	339.118
302.5000	-0.501765	339.073
302.4000	-0.489946	339.022
302.3000	-0.536483	338.925
302.2000	-0.629883	338.827
302.1000	-0.633631	338.734
302.0000	-0.601531	338.673
301.9000	-0.54175	338.585
301.8000	-0.514022	338.51
301.7000	-0.499198	338.45
301.6000	-0.471279	338.361
301.5000	-0.500942	338.311
301.4000	-0.57212	338.259
301.3000	-0.584064	338.184
301.2000	-0.674445	338.114
301.1000	-0.704787	338.052
301.0000	-0.734505	338.019
300.9000	-0.752796	337.945
300.8000	-0.76811	337.868
300.7000	-0.753774	337.804
300.6000	-0.689658	337.723
300.5000	-0.669317	337.657
300.4000	-0.624154	337.607
300.3000	-0.505786	337.535
300.2000	-0.467752	337.461
300.1000	-0.460468	337.403
300.0000	-0.493949	337.339
299.9000	-0.52472	337.286
299.8000	-0.602888	337.232
299.7000	-0.624439	337.165
299.6000	-0.652435	337.105
299.5000	-0.743575	337.039
299.4000	-0.790286	336.986
299.3000	-0.797385	336.914
299.2000	-0.803919	336.856
299.1000	-0.754632	336.815
299.0000	-0.746996	336.748
298.9000	-0.801291	336.695
298.8000	-0.871062	336.655
298.7000	-0.880024	336.598
298.6000	-0.838721	336.553
298.5000	-0.877417	336.502
298.4000	-0.917633	336.439
298.3000	-0.963122	336.383
298.2000	-0.927541	336.327
298.1000	-0.904488	336.268
298.0000	-0.888972	336.216
297.9000	-0.876661	336.169
297.8000	-0.881858	336.103
297.7000	-0.823807	336.053
297.6000	-0.817343	336.012
297.5000	-0.804071	335.948
297.4000	-0.839557	335.901
297.3000	-0.82629	335.859
297.2000	-0.818445	335.795
297.1000	-0.806414	335.746
297.0000	-0.866783	335.692
296.9000	-0.948375	335.618
296.8000	-0.961009	335.564
296.7000	-0.931436	335.52
296.6000	-0.896539	335.484
296.5000	-0.895004	335.436
296.4000	-0.848736	335.398
296.3000	-0.787275	335.369
296.2000	-0.728657	335.331
296.1000	-0.580537	335.301
296.0000	-0.510571	335.274
295.9000	-0.509894	335.227
295.8000	-0.50726	335.162
295.7000	-0.483338	335.12
295.6000	-0.471085	335.074
295.5000	-0.53077	335.006
295.4000	-0.604879	334.927
295.3000	-0.685288	334.876
295.2000	-0.743251	334.816
295.1000	-0.771894	334.742
295.0000	-0.766876	334.703
294.9000	-0.803861	334.649
294.8000	-0.865147	334.579
294.7000	-0.845742	334.539
294.6000	-0.807691	334.506
294.5000	-0.807485	334.456
294.4000	-0.811879	334.419
294.3000	-0.817232	334.394
294.2000	-0.837712	334.347
294.1000	-0.837389	334.31
294.0000	-0.802795	334.288
293.9000	-0.835997	334.242
293.8000	-0.774519	334.215
293.7000	-0.735499	334.193
293.6000	-0.751111	334.141
293.5000	-0.802672	334.077
293.4000	-0.76137	334.048
293.3000	-0.755909	334.004
293.2000	-0.749554	333.948
293.1000	-0.703865	333.924
293.0000	-0.756377	333.874
292.9000	-0.857311	333.818
292.8000	-0.861087	333.798
292.7000	-0.859846	333.775
292.6000	-0.970522	333.735
292.5000	-1.09384	333.676
292.4000	-1.15813	333.646
292.3000	-1.17253	333.6
292.2000	-1.17018	333.552
292.1000	-1.14195	333.528
292.0000	-1.10856	333.487
291.9000	-1.05913	333.437
291.8000	-0.993365	333.392
291.7000	-0.867919	333.377
291.6000	-0.822934	333.335
291.5000	-0.796862	333.288
291.4000	-0.778798	333.263
291.3000	-0.779528	333.21
291.2000	-0.796841	333.143
291.1000	-0.850691	333.07
291.0000	-0.873173	333.016
290.9000	-0.943539	332.936
290.8000	-0.969597	332.84
290.7000	-0.965506	332.737
290.6000	-0.982152	332.624
290.5000	-0.98742	332.489
290.4000	-0.965453	332.352
290.3000	-0.948188	332.236
290.2000	-0.96245	332.097
290.1000	-0.889114	331.952
290.0000	-0.802218	331.823
289.9000	-0.754328	331.732
289.8000	-0.759463	331.651
289.7000	-0.705702	331.597
289.6000	-0.666969	331.583
289.5000	-0.701739	331.606
289.4000	-0.683703	331.651
289.3000	-0.670622	331.727
289.2000	-0.779421	331.818
289.1000	-0.892042	331.929
289.0000	-0.947365	332.032
288.9000	-1.00478	332.131
288.8000	-1.01164	332.221
288.7000	-0.975232	332.298
288.6000	-0.902594	332.355
288.5000	-0.905824	332.393
288.4000	-0.851819	332.415
288.3000	-0.756344	332.431
288.2000	-0.70921	332.424
288.1000	-0.633844	332.413
288.0000	-0.632359	332.386
287.9000	-0.624903	332.346
287.8000	-0.65875	332.319
287.7000	-0.707138	332.288
287.6000	-0.801083	332.259
287.5000	-0.863142	332.222
287.4000	-0.887431	332.202
287.3000	-0.953822	332.182
287.2000	-1.014	332.163
287.1000	-1.04389	332.148
287.0000	-1.09621	332.106
286.9000	-1.14274	332.082
286.8000	-1.03474	332.07
286.7000	-0.934844	332.056
286.6000	-0.875309	332.031
286.5000	-0.870062	332.022
286.4000	-0.819716	332.02
286.3000	-0.778726	332.02
286.2000	-0.786037	332.017
286.1000	-0.78005	332.008
286.0000	-0.840592	332.01
285.9000	-0.933495	331.997
285.8000	-0.953163	331.992
285.7000	-0.923039	331.965
285.6000	-0.925937	331.936
285.5000	-0.93897	331.929
285.4000	-0.909631	331.929
285.3000	-0.794938	331.938
285.2000	-0.74764	331.916
285.1000	-0.743091	331.905
285.0000	-0.753071	331.917
284.9000	-0.766436	331.915
284.8000	-0.792095	331.918
284.7000	-0.755983	331.897
284.6000	-0.799882	331.874
284.5000	-0.899849	331.869
284.4000	-0.936656	331.868
284.3000	-0.907765	331.873
284.2000	-0.885734	331.849
284.1000	-0.860995	331.837
284.0000	-0.827549	331.819
283.9000	-0.853033	331.822
283.8000	-0.901597	331.833
283.7000	-0.821909	331.827
283.6000	-0.730492	331.824
283.5000	-0.738733	331.813
283.4000	-0.747647	331.811
283.3000	-0.748061	331.83
283.2000	-0.800337	331.848
283.1000	-0.808181	331.859
283.0000	-0.776861	331.85
282.9000	-0.763942	331.842
282.8000	-0.819087	331.83
282.7000	-0.835181	331.839
282.6000	-0.826926	331.851
282.5000	-0.827779	331.851
282.4000	-0.76814	331.844
282.3000	-0.736365	331.835
282.2000	-0.691494	331.833
282.1000	-0.706388	331.85
282.0000	-0.703509	331.868
281.9000	-0.657242	331.875
281.8000	-0.685068	331.869
281.7000	-0.686907	331.861
281.6000	-0.718366	331.858
281.5000	-0.729773	331.856
281.4000	-0.750518	331.88
281.3000	-0.74524	331.889
281.2000	-0.734848	331.887
281.1000	-0.754654	331.887
281.0000	-0.730316	331.89
280.9000	-0.690187	331.893
280.8000	-0.7102	331.892
280.7000	-0.735149	331.897
280.6000	-0.764339	331.906
280.5000	-0.796299	331.905
280.4000	-0.84268	331.909
280.3000	-0.916184	331.907
280.2000	-0.90541	331.901
280.1000	-0.964728	331.892
280.0000	-0.950627	331.889
279.9000	-0.91209	331.888
279.8000	-0.850839	331.867
279.7000	-0.767631	331.862
279.6000	-0.644306	331.856
279.5000	-0.556437	331.85
279.4000	-0.580185	331.848
279.3000	-0.540283	331.847
279.2000	-0.501097	331.848
279.1000	-0.520589	331.845
